File: TAInstCalorimetry/DATA/calorimetry_data_3.csv
"Time","Temperature [AmbientT(Therm3T)]","Temperature [Temperature]","Heat flow [Signal]","Heat [Signal]","Normalized heat flow [Signal]","Normalized heat [Signal]","Time markers"
-2404.38,21.9911,19.9999,NaN,NaN,NaN,NaN,""
-2403.68,21.9909,19.9999,-1.15177e-06,NaN,-2.63623e-07,NaN,""
-2380.88,21.983,20.0002,-8.0567e-07,NaN,-1.84406e-07,NaN,""
-2363.53,21.993,20.0003,-5.42311e-07,NaN,-1.24127e-07,NaN,""
-2344.11,22.0043,20.0002,-4.12699e-07,NaN,-9.44607e-08,NaN,""
-2342.03,22.0054,20.0002,-4.0096e-07,NaN,-9.17739e-08,NaN,""
-2331.14,22.1416,20.0001,-3.39311e-07,NaN,-7.76632e-08,NaN,""
-2314.55,22.0989,20.0001,-2.45395e-07,NaN,-5.61674e-08,NaN,""
-2308.4,22.083,20,-8.91091e-08,NaN,-2.03958e-08,NaN,""
-2302.44,22.0675,20.0001,5.73525e-08,NaN,1.31271e-08,NaN,""
-2261.39,21.9536,20.0002,9.01919e-08,NaN,2.06436e-08,NaN,""
-2251.54,21.9701,20.0002,1.6738e-07,NaN,3.83108e-08,NaN,""
-2241.69,21.9909,20.0001,2.44568e-07,NaN,5.59779e-08,NaN,""
-2226.87,22.0149,20,6.77457e-08,NaN,1.5506e-08,NaN,""
-2209.81,22.0202,20,-1.35727e-07,NaN,-3.1066e-08,NaN,""
-2190.36,22.0225,19.9999,-7.11648e-08,NaN,-1.62886e-08,NaN,""
-2180.31,22.0024,19.9999,-3.78171e-08,NaN,-8.65578e-09,NaN,""
-2170.27,21.9857,19.9999,-4.46935e-09,NaN,-1.02297e-09,NaN,""
-2149.08,21.9892,19.9999,-1.25358e-07,NaN,-2.86927e-08,NaN,""
-2138.38,21.9909,20,-2.47478e-07,NaN,-5.66441e-08,NaN,""
-2128.84,21.9925,20.0003,-5.05535e-07,NaN,-1.1571e-07,NaN,""
-2120.36,21.9939,20.0003,-6.352e-07,NaN,-1.45388e-07,NaN,""
-2109.12,21.9957,20.0003,-6.07708e-07,NaN,-1.39096e-07,NaN,""
-2102.7,21.9954,20.0003,-7.65786e-07,NaN,-1.75277e-07,NaN,""
-2096.27,21.9903,20.0003,-9.23864e-07,NaN,-2.11459e-07,NaN,""
-2053.9,21.9569,20.0002,-6.08651e-07,NaN,-1.39311e-07,NaN,""
-2051.2,21.9548,20.0002,-5.49871e-07,NaN,-1.25857e-07,NaN,""
-2040.94,21.9679,20.0002,-3.27166e-07,NaN,-7.48834e-08,NaN,""
-2030.69,21.981,20.0001,-1.0446e-07,NaN,-2.39095e-08,NaN,""
-2007.51,21.9785,20.0001,3.97686e-07,NaN,9.10245e-08,NaN,""
-1966.18,21.974,19.9999,-1.88085e-07,NaN,-4.30498e-08,NaN,""
-1936.58,21.9708,19.9998,-5.34314e-08,NaN,-1.22297e-08,NaN,""
-1906.98,21.9676,20.0002,8.1222e-08,NaN,1.85905e-08,NaN,""
-1886.96,21.9654,20.0002,-2.69103e-07,NaN,-6.15936e-08,NaN,""
-1872.2,21.9638,20,-5.27351e-07,NaN,-1.20703e-07,NaN,""
-1850.75,21.9615,20,-4.85741e-07,NaN,-1.11179e-07,NaN,""
-1831.33,21.9594,20,-2.17998e-07,NaN,-4.98965e-08,NaN,""
-1823.7,21.9585,20,-3.07907e-07,NaN,-7.04753e-08,NaN,""
-1773.34,21.9723,20,-9.01918e-07,NaN,-2.06436e-07,NaN,""
-1758.99,21.9763,19.9999,-1.07109e-06,NaN,-2.45157e-07,NaN,""
-1744.88,21.9801,19.9999,-9.35051e-07,NaN,-2.14019e-07,NaN,""
-1735.3,21.9828,19.9999,-1.10667e-06,NaN,-2.53301e-07,NaN,""
-1727.54,21.9762,19.9998,-1.17585e-06,NaN,-2.69135e-07,NaN,""
-1717.27,21.9675,19.9998,-9.67984e-07,NaN,-2.21557e-07,NaN,""
-1698.07,21.9512,19.9998,-1.23665e-06,NaN,-2.83051e-07,NaN,""
-1677.25,21.942,19.9997,-9.05403e-07,NaN,-2.07234e-07,NaN,""
-1656.44,21.9658,19.9997,-5.74157e-07,NaN,-1.31416e-07,NaN,""
-1644.42,21.9795,19.9996,-7.4179e-07,NaN,-1.69785e-07,NaN,""
-1637.44,21.9727,19.9996,-6.07407e-07,NaN,-1.39027e-07,NaN,""
-1618.3,21.954,19.9999,5.5028e-07,NaN,1.25951e-07,NaN,""
-1603.57,21.9556,20.0001,9.57336e-07,NaN,2.1912e-07,NaN,""
-1580.1,21.9657,20,1.60551e-06,NaN,3.67478e-07,NaN,""
-1578.99,21.9648,20,1.63618e-06,NaN,3.74497e-07,NaN,""
-1562.16,21.9511,20,2.08785e-06,NaN,4.77879e-07,NaN,""
-1550.96,21.942,20,1.94942e-06,NaN,4.46193e-07,NaN,""
-1539.75,21.9329,19.9999,1.81098e-06,NaN,4.14508e-07,NaN,""
-1531.04,21.9263,19.9999,1.81288e-06,NaN,4.14942e-07,NaN,""
-1522.32,21.9288,19.9998,1.81478e-06,NaN,4.15377e-07,NaN,""
-1496.79,21.9362,19.9997,1.46697e-06,NaN,3.35769e-07,NaN,""
-1470.1,21.8818,19.9996,1.10326e-06,NaN,2.5252e-07,NaN,""
-1459.43,21.8777,19.9996,9.33996e-07,NaN,2.13778e-07,NaN,""
-1436.79,21.9094,20,5.74711e-07,NaN,1.31543e-07,NaN,""
-1424.2,21.9035,20,3.74939e-07,NaN,8.5818e-08,NaN,""
-1391.18,21.888,19.9999,-1.49046e-07,NaN,-3.41145e-08,NaN,""
-1381.97,21.8876,19.9998,-3.3732e-07,NaN,-7.72077e-08,NaN,""
-1372.76,21.8966,19.9998,-5.25594e-07,NaN,-1.20301e-07,NaN,""
-1359.88,21.9092,19.9998,-8.65924e-07,NaN,-1.98197e-07,NaN,""
-1346.99,21.9168,19.9998,-1.20625e-06,NaN,-2.76094e-07,NaN,""
-1321.25,21.8942,19.9998,-1.42356e-06,NaN,-3.25832e-07,NaN,""
-1309.91,21.9394,19.9998,-1.51933e-06,NaN,-3.47753e-07,NaN,""
-1281.27,21.9381,19.9998,-1.9654e-06,NaN,-4.49851e-07,NaN,""
-1262.52,21.9373,19.9999,-2.57733e-06,NaN,-5.89913e-07,NaN,""
-1248.44,21.9367,19.9999,-2.72145e-06,NaN,-6.22901e-07,NaN,""
-1235.17,21.9364,19.9998,-2.83493e-06,NaN,-6.48873e-07,NaN,""
-1235,21.9364,19.9998,-2.83636e-06,NaN,-6.49201e-07,NaN,""
-1222.18,21.9375,19.9998,-2.9543e-06,NaN,-6.76195e-07,NaN,""
-1194.73,21.9397,19.9998,-3.98974e-06,NaN,-9.13194e-07,NaN,""
-1167.99,21.9418,19.9998,-4.49328e-06,NaN,-1.02845e-06,NaN,""
-1152.08,21.9431,19.9998,-4.24757e-06,NaN,-9.72206e-07,NaN,""
-1143.58,21.9744,19.9998,-3.98778e-06,NaN,-9.12744e-07,NaN,""
-1131.13,22.0203,19.9998,-3.57955e-06,NaN,-8.19307e-07,NaN,""
-1125.63,22.0143,19.9998,-3.39031e-06,NaN,-7.75991e-07,NaN,""
-1110.78,21.9983,20.0001,-2.46e-06,NaN,-5.63057e-07,NaN,""
-1102.22,21.9894,20.0001,-1.87826e-06,NaN,-4.29906e-07,NaN,""
-1058.18,21.9965,20,1.18426e-06,NaN,2.71059e-07,NaN,""
-1043.01,21.9989,20,1.73125e-06,NaN,3.96258e-07,NaN,""
-1027.84,22.0013,20,2.27825e-06,NaN,5.21457e-07,NaN,""
-1002.78,22.0054,20,3.51728e-06,NaN,8.05053e-07,NaN,""
-989.839,21.9961,20,3.67989e-06,NaN,8.42274e-07,NaN,""
-954.712,21.9711,20.0001,4.03455e-06,NaN,9.2345e-07,NaN,""
-925.5,22.0161,20.0001,3.2224e-06,NaN,7.3756e-07,NaN,""
-924.92,22.0187,20.0001,3.20628e-06,NaN,7.3387e-07,NaN,""
-915.942,22.0335,20,2.95666e-06,NaN,6.76737e-07,NaN,""
-899.374,22.0148,20,2.49605e-06,NaN,5.71309e-07,NaN,""
-875.628,22.0118,19.9999,1.7857e-06,NaN,4.08721e-07,NaN,""
-873.144,22.0115,19.9998,1.71061e-06,NaN,3.91533e-07,NaN,""
-853.577,22.0091,20.0003,1.11909e-06,NaN,2.56143e-07,NaN,""
-851.882,22.0089,20.0003,1.09551e-06,NaN,2.50747e-07,NaN,""
-835.128,22.0681,20.0003,8.6241e-07,NaN,1.97393e-07,NaN,""
-817.21,22.0495,20.0002,6.22753e-07,NaN,1.42539e-07,NaN,""
-778.664,22.0095,20.0001,7.86869e-07,NaN,1.80103e-07,NaN,""
-751.47,21.992,20,1.10994e-06,NaN,2.54049e-07,NaN,""
-724.276,21.995,19.9999,1.43301e-06,NaN,3.27996e-07,NaN,""
-700.569,21.9976,19.9999,1.08814e-06,NaN,2.4906e-07,NaN,""
-683.061,21.9995,19.9999,1.07707e-06,NaN,2.46526e-07,NaN,""
-674.268,21.9977,19.9999,8.31032e-07,NaN,1.90211e-07,NaN,""
-665.475,21.9895,19.9999,5.84995e-07,NaN,1.33897e-07,NaN,""
-649.116,21.9742,19.9999,7.44644e-07,NaN,1.70438e-07,NaN,""
-630.233,21.9566,19.9999,1.54675e-07,NaN,3.54029e-08,NaN,""
-613.1,21.9406,19.9999,3.16159e-07,NaN,7.23642e-08,NaN,""
-604.678,21.9505,19.9999,2.90374e-07,NaN,6.64624e-08,NaN,""
-572.648,22.0061,19.9999,NaN,NaN,NaN,NaN,""
-519.875,21.9902,19.9999,NaN,NaN,NaN,NaN,""
-467.103,21.9744,19.9999,NaN,NaN,NaN,NaN,""
-400.612,21.9353,19.9999,NaN,NaN,NaN,NaN,""
-376.581,21.9971,19.9999,NaN,NaN,NaN,NaN,""
-353.737,21.8412,19.9999,NaN,NaN,NaN,NaN,""
-331.14,21.9776,20,NaN,NaN,NaN,NaN,""
-297.003,21.9713,20,NaN,NaN,NaN,NaN,""
-293.131,21.9943,20,NaN,NaN,NaN,NaN,""
-280.378,22.0699,19.9998,NaN,NaN,NaN,NaN,""
-248.618,22.0158,19.9995,NaN,NaN,NaN,NaN,""
-222.361,22.0255,19.9997,NaN,NaN,NaN,NaN,""
-209.396,22.0303,19.9999,NaN,NaN,NaN,NaN,""
-191.304,22.037,20.0003,NaN,NaN,NaN,NaN,""
-167.486,22.0661,20,NaN,NaN,NaN,NaN,""
-143.878,22.096,19.9998,NaN,NaN,NaN,NaN,""
-135.622,22.0467,19.9998,NaN,NaN,NaN,NaN,""
-127.366,21.9974,19.9998,NaN,NaN,NaN,NaN,""
-85.9503,22.0172,19.9999,NaN,NaN,NaN,NaN,""
-58.7999,21.9211,20,NaN,NaN,NaN,NaN,""
-36.8126,22.006,20.0001,NaN,NaN,NaN,NaN,""
-14.8253,22.0909,20.0001,NaN,NaN,NaN,NaN,""
19.7821,22.137,20,NaN,NaN,NaN,NaN,""
66.3964,22.0881,20,NaN,NaN,NaN,NaN,""
84.0328,22.0276,19.9999,NaN,NaN,NaN,NaN,""
95.628,22.0182,19.9999,NaN,NaN,NaN,NaN,""
120.221,22.0575,19.9997,NaN,NaN,NaN,NaN,""
150.95,22.0613,19.9995,NaN,NaN,NaN,NaN,""
157.684,22.1539,19.9995,NaN,NaN,NaN,NaN,""
164.419,22.2464,19.9996,NaN,NaN,NaN,NaN,""
180.411,22.2754,19.9997,NaN,NaN,NaN,NaN,""
205.622,22.0301,20,NaN,NaN,NaN,NaN,""
220.377,22.0675,20,NaN,NaN,NaN,NaN,""
235.133,22.1049,20.0001,NaN,NaN,NaN,NaN,""
269.005,22.0972,20.0002,NaN,NaN,NaN,NaN,""
289.657,22.1117,20.0001,NaN,NaN,NaN,NaN,""
308.913,22.1252,19.9999,NaN,NaN,NaN,NaN,""
329.565,22.1017,19.9999,NaN,NaN,NaN,NaN,""
366.852,22.0542,20.0001,NaN,NaN,NaN,NaN,""
397.247,22.0615,19.9998,NaN,NaN,NaN,NaN,""
416.099,22.066,19.9998,NaN,NaN,NaN,NaN,""
449.476,22.074,20.0001,NaN,NaN,NaN,NaN,""
484.506,22.0496,20,NaN,NaN,NaN,NaN,""
518.778,22.022,19.9999,NaN,NaN,NaN,NaN,""
546.278,22.054,19.9999,NaN,NaN,NaN,NaN,""
573.778,22.0859,19.9999,NaN,NaN,NaN,NaN,""
614.426,22.0515,19.9999,NaN,NaN,NaN,NaN,""
622.992,22.0528,19.9999,NaN,NaN,NaN,NaN,""
664.341,22.0592,20.0005,NaN,NaN,NaN,NaN,""
672.397,22.0546,20.0003,NaN,NaN,NaN,NaN,""
680.454,22.0432,20,NaN,NaN,NaN,NaN,""
710.891,21.9999,19.9996,NaN,NaN,NaN,NaN,""
732.593,21.9977,19.9997,NaN,NaN,NaN,NaN,""
754.295,22.0089,19.9998,NaN,NaN,NaN,NaN,""
781.603,22.0223,19.9998,NaN,NaN,NaN,NaN,""
808.911,22.0267,19.9997,NaN,NaN,NaN,NaN,""
829.989,22.0301,20.0001,NaN,NaN,NaN,NaN,""
862.411,22.0353,19.9997,NaN,NaN,NaN,NaN,""
880.983,22.0383,19.9998,NaN,NaN,NaN,NaN,""
902.497,21.9846,20,NaN,NaN,NaN,NaN,""
911.53,21.8717,20.0001,NaN,NaN,NaN,NaN,""
926.122,21.9534,20.0001,NaN,NaN,NaN,NaN,""
940.714,22.0351,20,NaN,NaN,NaN,NaN,""
999.721,22.0943,19.9997,NaN,NaN,NaN,NaN,""
1037.39,22.0603,19.9997,NaN,NaN,NaN,NaN,""
1075.06,22.0263,19.9997,NaN,NaN,NaN,NaN,""
1117.14,22.0366,19.9998,NaN,NaN,NaN,NaN,""
1122.88,22.0351,20,NaN,NaN,NaN,NaN,""
1128.62,22.0329,20.0003,NaN,NaN,NaN,NaN,""
1154.47,22.0227,19.9997,NaN,NaN,NaN,NaN,""
1197.37,22.0058,19.9998,NaN,NaN,NaN,NaN,""
1219.64,22.0109,20,NaN,NaN,NaN,NaN,""
1258.62,22.0198,20.0002,NaN,NaN,NaN,NaN,""
1278.05,22.0242,19.9997,NaN,NaN,NaN,NaN,""
1304.47,22.0303,19.9999,NaN,NaN,NaN,NaN,""
1330.93,22.0363,19.9996,NaN,NaN,NaN,NaN,""
1364.9,22.0441,19.9999,NaN,NaN,NaN,NaN,""
1386.77,22.0283,19.9999,NaN,NaN,NaN,NaN,""
1411.09,22.0108,19.9998,NaN,NaN,NaN,NaN,""
1440.35,22.0028,19.9997,NaN,NaN,NaN,NaN,""
1499.44,21.9865,19.9997,NaN,NaN,NaN,NaN,""
1511.77,22.0147,19.9998,NaN,NaN,NaN,NaN,""
1521.53,22.0292,19.9998,NaN,NaN,NaN,NaN,""
1570.75,21.9913,20.0002,NaN,NaN,NaN,NaN,""
1590.69,22.0537,20.0002,NaN,NaN,NaN,NaN,""
1610.63,22.116,19.9998,NaN,NaN,NaN,NaN,""
1623.62,22.0948,19.9998,NaN,NaN,NaN,NaN,""
1636.62,22.0736,19.9999,NaN,NaN,NaN,NaN,""
1657,22.1442,20.0002,NaN,NaN,NaN,NaN,""
1668.18,22.1047,20.0003,NaN,NaN,NaN,NaN,""
1674.89,22.0989,20.0003,NaN,NaN,NaN,NaN,""
1697.02,22.11,20.0002,NaN,NaN,NaN,NaN,""
1742.14,22.0513,20.0001,NaN,NaN,NaN,NaN,""
1767.58,22.039,20.0001,NaN,NaN,NaN,NaN,""
1865.12,22.015,20.0003,NaN,NaN,NaN,NaN,""
1881.9,22.0109,19.9999,NaN,NaN,NaN,NaN,""
1933.5,21.9982,19.9999,NaN,NaN,NaN,NaN,""
1971.54,21.9998,19.9998,NaN,NaN,NaN,NaN,""
1992.26,22.0006,19.9995,NaN,NaN,NaN,NaN,""
2052.56,22.0031,19.9998,NaN,NaN,NaN,NaN,""
2101.35,22.0051,19.9998,NaN,NaN,NaN,NaN,""
2129.14,21.9935,20,NaN,NaN,NaN,NaN,""
2151.3,21.9842,20.0003,NaN,NaN,NaN,NaN,""
2197.17,21.9651,20,NaN,NaN,NaN,NaN,""
2216.16,22.0671,19.9998,NaN,NaN,NaN,NaN,""
2223.89,22.1211,19.9998,NaN,NaN,NaN,NaN,""
2231.62,22.1751,19.9998,NaN,NaN,NaN,NaN,""
2242.79,21.9939,19.9998,NaN,NaN,NaN,NaN,""
2253.34,22.0506,19.9998,NaN,NaN,NaN,NaN,""
2267.8,22.1615,19.9998,NaN,NaN,NaN,NaN,""
2307.34,22.0825,19.9999,NaN,NaN,NaN,NaN,""
2330.79,22.0775,20,NaN,NaN,NaN,NaN,""
2345.32,22.0846,20.0002,NaN,NaN,NaN,NaN,""
2399.17,22.0611,20.0005,NaN,NaN,NaN,NaN,""
2433.18,22.0462,19.9999,NaN,NaN,NaN,NaN,""
2464.78,22.0324,20.0002,NaN,NaN,NaN,NaN,""
2491.38,22.0491,20.0003,NaN,NaN,NaN,NaN,""
2522.93,22.0688,19.9999,NaN,NaN,NaN,NaN,""
2523.81,22.0694,19.9999,NaN,NaN,NaN,NaN,""
2543.83,22.0027,20,NaN,NaN,NaN,NaN,""
2560.59,22.1017,20.0001,NaN,NaN,NaN,NaN,""
2569.05,22.1364,20,NaN,NaN,NaN,NaN,""
2582.5,22.1909,19.9998,NaN,NaN,NaN,NaN,""
2590.15,22.1593,19.9997,NaN,NaN,NaN,NaN,"Reaction start. Measuring position. Signal correct"
2590.32,22.1586,19.9997,9.24171e-05,1.62762e-05,2.11529e-05,3.72538e-06,""
2963.32,22.0965,19.9997,0.245398,10.4727,0.0561679,2.39705,""
3140.07,22.0417,19.9999,0.226586,56.7894,0.0518621,12.9983,""
3435.57,22.0175,19.9999,0.0984883,102.558,0.0225425,23.474,""
3873.13,22.04,19.9998,0.0294567,127.3,0.00674221,29.1371,""
4635.44,22.0884,19.9997,0.0066305,138.078,0.00151762,31.6041,""
6103.98,22.1722,19.9999,0.00303786,143.978,0.000695323,32.9545,""
8443.14,22.2172,20.0002,0.00282253,150.721,0.000646037,34.4978,""
10743,22.1547,19.9999,0.00298439,157.348,0.000683084,36.0147,""
13248.6,22.1485,19.9999,0.00343113,165.327,0.000785334,37.8408,""
15867.8,22.0581,20.0001,0.00424598,175.294,0.000971843,40.1223,""
18221.4,21.9844,19.9999,0.0053211,186.49,0.00121792,42.6848,""
20534.5,21.9644,20,0.00666799,200.306,0.00152621,45.847,""
23374.5,21.9545,19.9999,0.00863887,221.96,0.00197731,50.8033,""
25922.2,21.9871,19.9998,0.0105835,246.442,0.0024224,56.4069,""
28279.1,21.988,19.9998,0.012331,273.465,0.00282239,62.5922,""
30499.8,21.9426,19.9999,0.0141339,302.651,0.00323505,69.2723,""
33473.2,21.9291,19.9999,0.0169247,349.196,0.00387381,79.9258,""
35679.3,21.9531,19.9996,0.0180122,387.873,0.00412272,88.7784,""
38140.3,21.8895,19.9997,0.0184491,432.89,0.00422274,99.0823,""
40716,21.885,20,0.018216,480.229,0.00416938,109.917,""
43152.5,21.8532,20.0001,0.0176587,523.962,0.00404182,119.927,""
45633.6,21.8392,20,0.0171728,567.111,0.0039306,129.803,""
47829.1,21.8438,19.9999,0.0171566,604.7,0.00392689,138.407,""
50591.5,21.8781,19.9997,0.0176526,652.784,0.00404043,149.413,""
52770.9,21.7978,20,0.0168327,690.76,0.00385277,158.105,""
55006.1,21.7634,19.9996,0.0147529,726.032,0.00337672,166.178,""
57486.1,21.7404,19.9994,0.0129045,760.245,0.00295366,174.009,""
59771.6,21.7678,19.9996,0.0114341,788.023,0.00261709,180.367,""
62368.7,21.7443,19.9998,0.0100919,815.87,0.00230989,186.741,""
64984.2,21.8475,20,0.00925012,841.066,0.00211722,192.508,""
67299.1,21.8738,20.0004,0.00880447,861.925,0.00201521,197.282,""
70149.2,21.8733,19.9996,0.00841476,886.446,0.00192601,202.895,""
72669.4,21.9796,19.9998,0.00806346,907.222,0.00184561,207.65,""
75278.5,21.9845,20,0.00764146,927.721,0.00174902,212.342,""
77719.5,21.9734,19.9999,0.00722686,945.914,0.00165412,216.506,""
80180.5,21.9656,19.9999,0.00676986,963.116,0.00154952,220.443,""
82977.8,21.9555,19.9998,0.00632651,981.426,0.00144805,224.634,""
85630,22.0055,19.9994,0.00596161,997.708,0.00136453,228.361,""
88506.9,22.0625,20,0.00562459,1014.36,0.00128739,232.173,""
90689.9,22.066,19.9996,0.00540807,1026.4,0.00123783,234.928,""
93366.7,22.0655,19.9998,0.00518227,1040.56,0.00118615,238.17,""
95850.6,22.0189,19.9998,0.00500423,1053.21,0.0011454,241.064,""
98460.7,21.9846,19.9995,0.00484324,1066.06,0.00110855,244.004,""
101100,21.9941,20,0.00470174,1078.65,0.00107616,246.887,""
104004,21.9835,19.9999,0.00456607,1092.1,0.00104511,249.965,""
106712,21.8699,19.9999,0.00445114,1104.31,0.0010188,252.76,""
108945,21.8036,19.9996,0.00436262,1114.15,0.00099854,255.012,""
111511,21.7795,19.9999,0.00426504,1125.22,0.000976205,257.546,""
113986,21.7632,19.9997,0.00417483,1135.66,0.000955557,259.936,""
116416,21.7624,19.9997,0.00408699,1145.7,0.000935452,262.233,""
119035,21.7099,20,0.00399443,1156.28,0.000914266,264.655,""
121589,21.6993,20,0.00390454,1166.36,0.000893692,266.963,""
124445,21.6757,19.9999,0.00380597,1177.38,0.000871132,269.484,""
127023,21.6635,19.9997,0.00371778,1187.07,0.000850945,271.703,""
129609,21.662,19.9998,0.00363111,1196.58,0.000831107,273.879,""
132356,21.6632,20.0004,0.00353989,1206.42,0.000810229,276.133,""
135174,21.6096,20.0001,0.00344897,1216.27,0.000789418,278.387,""
137740,21.6018,19.9998,0.0033682,1225.02,0.000770932,280.388,""
140428,21.5757,19.9999,0.00328585,1233.96,0.000752082,282.435,""
142915,21.5662,20.0001,0.00321189,1242.04,0.000735154,284.284,""
145482,21.5562,19.9999,0.00313854,1250.19,0.000718365,286.15,""
147904,21.5278,19.9995,0.00307124,1257.71,0.000702962,287.871,""
150088,21.5395,20.0001,0.00301174,1264.35,0.000689343,289.392,""
152720,21.5475,19.9999,0.00294326,1272.19,0.00067367,291.185,""
155121,21.6636,20.0001,0.00288191,1279.18,0.000659627,292.785,""
157441,21.7506,20,0.00282479,1285.8,0.000646554,294.301,""
159525,21.7599,19.9996,0.00277572,1291.64,0.000635321,295.636,""
161936,21.82,20,0.0027198,1298.26,0.000622523,297.152,""
164379,21.8423,19.9997,0.00266486,1304.84,0.000609948,298.658,""
166743,21.9287,19.9999,0.00261317,1311.08,0.000598116,300.086,""
169187,21.959,20,0.00256167,1317.4,0.000586328,301.533,""
171425,22.1184,20,0.00251581,1323.08,0.000575833,302.834,""
173808,22.1058,20,0.00246666,1329.02,0.000564582,304.192,""
175963,22.2082,19.9997,0.00242571,1334.29,0.00055521,305.399,""
178036,22.1748,20.0001,0.00238614,1339.28,0.000546153,306.541,""
180099,22.1464,19.9999,0.0023476,1344.16,0.000537332,307.658,""
182195,22.1275,19.9999,0.00230991,1349.04,0.000528705,308.775,""
184856,22.0556,19.9995,0.00226284,1355.12,0.000517931,310.168,""
187083,21.9964,19.9998,0.00222419,1360.12,0.000509085,311.311,""
189553,21.9146,19.9996,0.00218248,1365.56,0.000499539,312.557,""
191790,21.8703,20.0002,0.00214614,1370.4,0.000491221,313.665,""
194132,21.8418,19.9994,0.00210779,1375.38,0.000482442,314.805,""
197238,21.8251,20,0.00205916,1381.85,0.000471311,316.286,""
199604,21.7798,19.9999,0.00202222,1386.68,0.000462856,317.391,""
202171,21.7202,19.9998,0.00198404,1391.83,0.000454118,318.569,""
204846,21.7486,19.9998,0.00194489,1397.08,0.000445156,319.771,""
207398,21.6684,19.9999,0.00190818,1402,0.000436753,320.896,""
210092,21.6754,20.0001,0.0018698,1407.09,0.00042797,322.061,""
212613,21.6242,20,0.00183467,1411.75,0.000419929,323.13,""
215417,21.6358,20.0001,0.00179607,1416.84,0.000411093,324.295,""
217898,21.5965,19.9999,0.00176279,1421.26,0.000403477,325.305,""
220437,21.5731,19.9998,0.00172913,1425.69,0.000395773,326.32,""
222980,21.568,19.9999,0.00169642,1430.05,0.000388285,327.317,""
226530,21.5581,19.9997,0.00165133,1435.99,0.000377965,328.677,""
229228,21.5597,20,0.00161795,1440.4,0.000370325,329.686,""
231511,21.5357,20.0002,0.00158995,1444.06,0.000363916,330.524,""
235033,21.5218,20,0.00154773,1449.59,0.000354252,331.789,""
237908,21.4843,20.0002,0.00151408,1453.99,0.00034655,332.796,""
241233,21.4947,20,0.00147597,1458.96,0.000337828,333.934,""
244240,21.5039,19.9999,0.00144217,1463.34,0.000330091,334.938,""
247540,21.3987,19.9999,0.00140657,1468.04,0.000321943,336.014,""
250567,21.534,20,0.00137439,1472.25,0.000314578,336.977,""
253286,21.6036,19.9998,0.00134632,1475.93,0.000308152,337.82,""
256133,21.6897,20,0.00131784,1479.73,0.000301634,338.688,""
258947,21.7016,19.9997,0.00129,1483.4,0.000295262,339.528,""
261957,21.6791,19.9998,0.00126138,1487.24,0.000288711,340.406,""
264697,21.5772,19.9997,0.00123557,1490.66,0.000282805,341.189,""
267475,21.5327,19.9999,0.00120983,1494.05,0.000276912,341.967,""
270326,21.4593,19.9998,0.0011845,1497.46,0.000271114,342.748,""
273576,21.4473,19.9999,0.00115633,1501.27,0.000264666,343.618,""
277081,21.4271,19.9996,0.00112668,1505.27,0.00025788,344.534,""
280599,21.4171,20.0001,0.00109835,1509.18,0.000251396,345.43,""
283618,21.4187,20,0.00107483,1512.46,0.000246013,346.181,""
286835,21.3969,20.0001,0.00105056,1515.88,0.000240459,346.963,""
290644,21.3857,19.9998,0.00102249,1519.83,0.000234033,347.867,""
293799,21.3705,20.0001,0.00100026,1523.02,0.000228944,348.597,""
296831,21.3835,19.9999,0.00097896,1526.02,0.000224069,349.284,""
300729,21.3755,20,0.000953222,1529.79,0.000218178,350.146,""
303940,21.3661,19.9996,0.000931853,1532.81,0.000213287,350.838,""
307395,21.3424,20,0.00091024,1535.99,0.000208341,351.567,""
310437,21.3281,19.9999,0.000891895,1538.74,0.000204142,352.194,""
313948,21.3122,19.9999,0.000871556,1541.83,0.000199486,352.903,""
316715,21.2855,19.9998,0.000855826,1544.22,0.000195886,353.45,""
319356,21.2768,19.9997,0.000841328,1546.46,0.000192568,353.963,""
322343,21.3207,20,0.000825481,1548.95,0.000188941,354.532,""
325541,21.2767,19.9999,0.000808389,1551.56,0.000185028,355.13,""
328123,21.277,20.0006,0.000795467,1553.63,0.000182071,355.604,""
330760,21.253,19.9996,0.000782323,1555.71,0.000179062,356.08,""
333009,21.259,19.9999,0.00077169,1557.46,0.000176629,356.48,""
336051,21.2801,20,0.000756849,1559.79,0.000173232,357.012,""
338746,21.2951,20,0.000744588,1561.81,0.000170425,357.475,""
341719,21.2844,20,0.000731124,1564,0.000167344,357.978,""
344705,21.3253,19.9998,0.000718056,1566.17,0.000164353,358.473,""
347297,21.3121,19.9998,0.000707394,1568.01,0.000161912,358.896,""
349988,21.2976,20,0.000695743,1569.9,0.000159245,359.328,""
353282,21.3026,19.9996,0.00068247,1572.17,0.000156207,359.847,""
356226,21.3118,20.0002,0.000671213,1574.17,0.000153631,360.303,""
359207,21.3216,20.0001,0.000659988,1576.15,0.000151062,360.758,""
362052,21.3128,19.9997,0.00064951,1578.01,0.000148663,361.184,""
365007,21.331,20.0003,0.000639076,1579.92,0.000146275,361.619,""
368055,21.2992,19.9995,0.000628154,1581.85,0.000143775,362.061,""
370700,21.333,19.9998,0.000618959,1583.5,0.000141671,362.439,""
373558,21.2948,19.9999,0.000609139,1585.25,0.000139423,362.841,""
376988,21.2838,20.0001,0.000597953,1587.32,0.000136863,363.314,""
379707,21.2881,19.9997,0.000588966,1588.93,0.000134806,363.684,""
382367,21.2688,19.9997,0.000580609,1590.49,0.000132893,364.04,""
385305,21.2818,19.9999,0.000572183,1592.18,0.000130964,364.427,""
388725,21.273,19.9999,0.000561938,1594.12,0.000128619,364.871,""
391928,21.2605,19.9992,0.000553,1595.91,0.000126574,365.28,""
394915,21.2458,19.9997,0.000544777,1597.55,0.000124691,365.655,""
397795,21.2394,19.9999,0.000536786,1599.1,0.000122862,366.011,""
400785,21.2389,19.9997,0.000528978,1600.7,0.000121075,366.376,""
403964,21.2533,20,0.000520115,1602.36,0.000119047,366.757,""
407098,21.2592,19.9999,0.000512821,1603.98,0.000117377,367.128,""
410149,21.2671,19.9999,0.000504893,1605.53,0.000115563,367.483,""
412813,21.5105,19.9998,0.000498561,1606.87,0.000114113,367.789,""
412939,21.479,20.0002,0.000498649,1606.93,0.000114134,367.803,""
412939,21.479,20.0002,NaN,NaN,NaN,NaN,"Ampoule removed"
412943,21.4783,20.0002,NaN,NaN,NaN,NaN,""