File: TAInstCalorimetry/DATA/calorimetry_data_1.csv
"Time","Temperature","Heat flow","Heat","Normalized heat flow","Normalized heat","Time markers"
-1874.12,20,NaN,NaN,NaN,NaN,""
-1872.26,20,-4.41834e-06,NaN,-1.02776e-06,NaN,""
-1851.59,20,-4.02016e-06,NaN,-9.35138e-07,NaN,""
-1835.82,20,-3.50126e-06,NaN,-8.14435e-07,NaN,""
-1825.28,20,-3.90806e-06,NaN,-9.09061e-07,NaN,""
-1805.17,20,-3.55715e-06,NaN,-8.27436e-07,NaN,""
-1768.38,20,-4.14532e-06,NaN,-9.64251e-07,NaN,""
-1719.97,20,-3.36823e-06,NaN,-7.83492e-07,NaN,""
-1698.42,20,-3.53452e-06,NaN,-8.22172e-07,NaN,""
-1673.31,20,-3.05748e-06,NaN,-7.11208e-07,NaN,""
-1650.9,20,-3.2421e-06,NaN,-7.54151e-07,NaN,""
-1607.04,20,-2.47151e-06,NaN,-5.74902e-07,NaN,""
-1580.54,20,-2.45039e-06,NaN,-5.69991e-07,NaN,""
-1559.46,20,-1.74435e-06,NaN,-4.05758e-07,NaN,""
-1544.61,20,-2.21994e-06,NaN,-5.16384e-07,NaN,""
-1393.04,20,-1.19157e-06,NaN,-2.77174e-07,NaN,""
-1294.54,20,-1.15943e-06,NaN,-2.69697e-07,NaN,""
-1278.64,20,-6.9201e-07,NaN,-1.6097e-07,NaN,""
-1245.32,20,-9.01383e-07,NaN,-2.09673e-07,NaN,""
-1208.54,20,-2.87427e-07,NaN,-6.68591e-08,NaN,""
-1187.29,20,-4.86876e-07,NaN,-1.13253e-07,NaN,""
-1164.64,20,-5.28533e-08,NaN,-1.22943e-08,NaN,""
-1141.76,20,-1.51311e-07,NaN,-3.51968e-08,NaN,""
-1130.69,20,9.40399e-08,NaN,2.18748e-08,NaN,""
-1087,20,-4.35197e-07,NaN,-1.01232e-07,NaN,""
-1045.31,20,3.01952e-07,NaN,7.02377e-08,NaN,""
-1025.92,20,2.20471e-07,NaN,5.12843e-08,NaN,""
-998.217,20,5.07116e-07,NaN,1.17961e-07,NaN,""
-983.463,20,1.29066e-06,NaN,3.00224e-07,NaN,""
-966.576,20,1.18825e-06,NaN,2.76402e-07,NaN,""
-945.252,20,1.40706e-06,NaN,3.273e-07,NaN,""
-903.353,20,1.13803e-06,NaN,2.64719e-07,NaN,""
-850.094,20,7.75532e-07,NaN,1.80398e-07,NaN,""
-812.334,20,1.13645e-06,NaN,2.64351e-07,NaN,""
-793.562,20,9.82609e-07,NaN,2.28567e-07,NaN,""
-766.756,20,1.63259e-06,NaN,3.7976e-07,NaN,""
-730.764,20,2.26292e-06,NaN,5.26384e-07,NaN,""
-717.6,20,1.87671e-06,NaN,4.36547e-07,NaN,""
-692.658,20,2.15275e-06,NaN,5.00755e-07,NaN,""
-668.115,20,1.61542e-06,NaN,3.75767e-07,NaN,""
-656.154,20,1.9087e-06,NaN,4.43987e-07,NaN,""
-641.6,20,1.38624e-06,NaN,3.22456e-07,NaN,""
-617.076,20,1.70042e-06,NaN,3.95539e-07,NaN,""
-578.699,20,1.76842e-06,NaN,4.11356e-07,NaN,""
-562.264,20,2.23992e-06,NaN,5.21032e-07,NaN,""
-527.625,20,1.9805e-06,NaN,4.60688e-07,NaN,""
-467.369,20,1.65176e-06,NaN,3.84221e-07,NaN,""
-446.517,20,1.89136e-06,NaN,4.39954e-07,NaN,""
-416.5,20,1.81449e-06,NaN,4.22073e-07,NaN,""
-388.904,20,2.2784e-06,NaN,5.29983e-07,NaN,""
-376.264,20,1.76032e-06,NaN,4.09472e-07,NaN,""
-337.864,20,2.12202e-06,NaN,4.93607e-07,NaN,""
-311.502,20,1.64327e-06,NaN,3.82245e-07,NaN,""
-260.557,20,1.70621e-06,NaN,3.96885e-07,NaN,""
-237.693,20,1.39285e-06,NaN,3.23995e-07,NaN,""
-214.302,20,1.82609e-06,NaN,4.24771e-07,NaN,""
-183.85,20,1.38047e-06,NaN,3.21114e-07,NaN,""
-128.745,20,2.23659e-06,NaN,5.20258e-07,NaN,""
-96.3329,20,1.66606e-06,NaN,3.87546e-07,NaN,""
-74.2636,20,1.9773e-06,NaN,4.59944e-07,NaN,""
2547.95,20,NaN,NaN,NaN,NaN,"Reaction start. Measuring position. Signal correct"
2548.74,20,0.000133963,0.00010506,3.11615e-05,2.44382e-05,""
2847.74,20,0.160513,2.69188,0.0373373,0.626165,""
2899.49,20,0.296997,15.3775,0.0690852,3.57699,""
2955.86,20,0.299708,32.5725,0.0697157,7.57677,""
3080.61,20,0.211683,64.6139,0.04924,15.03,""
3200.31,20,0.14258,85.5604,0.0331658,19.9024,""
3341.74,20,0.0895617,101.673,0.0208332,23.6503,""
3499.24,20,0.0542855,112.749,0.0126275,26.2269,""
3703.64,20,0.0295729,121.027,0.00687901,28.1523,""
3962.78,20,0.0151612,126.556,0.00352669,29.4386,""
4322.76,20,0.00768822,130.42,0.00178837,30.3372,""
4940.15,20,0.00431101,133.862,0.00100279,31.1379,""
6481.82,20,0.0026876,138.95,0.00062517,32.3214,""
8048.07,20,0.00209219,142.637,0.000486668,33.1791,""
9731.53,20,0.00175716,145.844,0.000408736,33.925,""
11625.1,20,0.00159806,149.007,0.000371727,34.6608,""
13091.2,20,0.00158182,151.31,0.00036795,35.1966,""
15092.1,20,0.00189485,154.81,0.000440766,36.0107,""
17315,20,0.00216449,159.31,0.000503486,37.0576,""
19972.6,20,0.00260211,165.613,0.000605283,38.5237,""
22049.3,20,0.00304078,171.458,0.000707322,39.8832,""
24114.2,20,0.00355879,178.258,0.000827819,41.4649,""
26225.2,20,0.00416747,186.399,0.000969403,43.3586,""
28235.6,20,0.00481137,195.418,0.00111918,45.4566,""
30493.8,20,0.00557099,207.134,0.00129588,48.182,""
32829.7,20,0.00637812,221.091,0.00148363,51.4284,""
34686.7,20,0.0070131,233.528,0.00163133,54.3215,""
37589.9,20,0.00794235,255.262,0.00184749,59.3771,""
39530.8,20,0.00849306,271.224,0.00197559,63.09,""
41299.9,20,0.00892704,286.644,0.00207654,66.6769,""
43153.5,20,0.00930029,303.55,0.00216336,70.6096,""
45689.6,20,0.00966088,327.631,0.00224724,76.2109,""
47495.9,20,0.00981245,345.232,0.0022825,80.3051,""
49976.4,20,0.00992249,369.718,0.00230809,86.0009,""
52234.8,20,0.0101666,392.343,0.00236488,91.2639,""
54384.6,20,0.0104577,414.543,0.0024326,96.4277,""
56192.7,20,0.0105171,433.538,0.00244642,100.846,""
57877.8,20,0.010404,451.185,0.0024201,104.951,""
60045.6,20,0.0100909,473.424,0.00234727,110.124,""
61913.7,20,0.00975314,491.963,0.0022687,114.437,""
64684.7,20,0.00923382,518.268,0.0021479,120.555,""
66787.7,20,0.00886234,537.29,0.00206149,124.98,""
69126.6,20,0.00849388,557.577,0.00197578,129.699,""
71362,20,0.00819878,576.223,0.00190714,134.036,""
73720.7,20,0.0079568,595.26,0.00185085,138.465,""
77239.6,20,0.00774289,622.828,0.00180109,144.877,""
80331,20,0.00769366,646.656,0.00178964,150.42,""
83155.9,20,0.00774275,668.44,0.00180106,155.487,""
85526.4,20,0.00784575,686.907,0.00182502,159.783,""
88241,20,0.00801304,708.422,0.00186393,164.788,""
90222.6,20,0.00813409,724.423,0.00189209,168.51,""
92787.7,20,0.0082049,745.411,0.00190856,173.392,""
94732.9,20,0.00812708,761.318,0.00189046,177.092,""
97432.7,20,0.00777164,782.842,0.00180778,182.099,""
99423.6,20,0.00735968,797.92,0.00171195,185.606,""
101687,20,0.00681883,813.973,0.00158614,189.34,""
103697,20,0.00634084,827.191,0.00147496,192.415,""
106444,20,0.0057526,843.78,0.00133813,196.274,""
109044,20,0.00528795,858.115,0.00123004,199.608,""
111186,20,0.00496477,869.086,0.00115487,202.16,""
113275,20,0.0046937,879.167,0.00109181,204.505,""
115492,20,0.0044435,889.289,0.00103361,206.859,""
117196,20,0.00427039,896.713,0.000993345,208.586,""
119068,20,0.00409883,904.543,0.000953439,210.408,""
120689,20,0.00396313,911.074,0.000921872,211.927,""
122457,20,0.00382745,917.958,0.000890311,213.528,""
124529,20,0.00368323,925.737,0.000856765,215.338,""
127290,20,0.00351117,935.665,0.000816742,217.647,""
129401,20,0.00339259,942.95,0.000789157,219.342,""
131499,20,0.00328523,949.957,0.000764185,220.972,""
133546,20,0.00318777,956.58,0.000741514,222.512,""
135276,20,0.00311078,962.026,0.000723606,223.779,""
137675,20,0.00301245,969.368,0.000700732,225.487,""
140960,20,0.00288807,979.058,0.000671801,227.741,""
143294,20,0.00280762,985.704,0.000653086,229.287,""
145098,20,0.00274966,990.719,0.000639604,230.453,""
147514,20,0.00267603,997.272,0.000622477,231.978,""
149519,20,0.00261844,1002.58,0.00060908,233.212,""
151448,20,0.00256502,1007.58,0.000596654,234.375,""
153582,20,0.00250957,1012.99,0.000583756,235.634,""
155744,20,0.00245569,1018.36,0.000571223,236.883,""
158325,20,0.00239264,1024.61,0.000556557,238.338,""
160486,20,0.00234438,1029.73,0.000545332,239.529,""
162359,20,0.00230333,1034.09,0.000535783,240.541,""
164494,20,0.00225884,1038.96,0.000525433,241.674,""
166408,20,0.00221976,1043.24,0.000516343,242.671,""
168238,20,0.00218512,1047.27,0.000508285,243.609,""
170600,20,0.00214084,1052.38,0.000497985,244.797,""
172426,20,0.00210829,1056.26,0.000490415,245.7,""
174970,20,0.00206393,1061.57,0.000480096,246.934,""
177621,20,0.00201956,1066.98,0.000469774,248.193,""
179904,20,0.00198342,1071.55,0.000461367,249.256,""
181724,20,0.00195682,1075.14,0.000455181,250.09,""
183699,20,0.00192679,1078.97,0.000448195,250.982,""
186125,20,0.00189329,1083.6,0.000440403,252.059,""
187975,20,0.0018676,1087.08,0.000434427,252.869,""
190134,20,0.00183911,1091.09,0.0004278,253.8,""
192774,20,0.0018053,1095.9,0.000419936,254.919,""
195116,20,0.0017776,1100.09,0.00041349,255.895,""
196961,20,0.00175629,1103.35,0.000408535,256.653,""
198615,20,0.00173742,1106.24,0.000404144,257.325,""
200260,20,0.00171938,1109.08,0.000399948,257.987,""
202706,20,0.00169336,1113.26,0.000393895,258.958,""
204788,20,0.00167029,1116.76,0.00038853,259.772,""
206883,20,0.00164946,1120.24,0.000383684,260.581,""
209006,20,0.00162727,1123.71,0.000378524,261.39,""
211578,20,0.00160306,1127.87,0.000372892,262.356,""
213713,20,0.00158289,1131.27,0.0003682,263.147,""
215837,20,0.0015639,1134.61,0.000363782,263.925,""
217634,20,0.00154738,1137.41,0.000359941,264.575,""
219873,20,0.00152739,1140.85,0.000355289,265.376,""
221643,20,0.00151333,1143.54,0.00035202,266.002,""
223698,20,0.00149585,1146.63,0.000347952,266.721,""
226838,20,0.00147115,1151.29,0.000342208,267.805,""
229876,20,0.00144815,1155.73,0.000336856,268.836,""
231965,20,0.00143281,1158.74,0.000333288,269.536,""
234570,20,0.00141342,1162.44,0.000328778,270.399,""
236764,20,0.0013992,1165.53,0.000325471,271.116,""
239451,20,0.00138049,1169.26,0.000321119,271.985,""
242019,20,0.00136266,1172.79,0.000316971,272.804,""
243994,20,0.00134947,1175.46,0.000313904,273.427,""
245896,20,0.00133683,1178.02,0.000310962,274.022,""
248249,20,0.00132271,1181.15,0.000307678,274.749,""
252344,20,0.00129703,1186.51,0.000301704,275.997,""
254352,20,0.00128507,1189.1,0.000298922,276.6,""
257787,20,0.00126472,1193.48,0.000294188,277.618,""
260730,20,0.00124806,1197.18,0.000290314,278.478,""
263478,20,0.00123262,1200.58,0.000286722,279.27,""
266371,20,0.00121545,1204.12,0.000282728,280.094,""
269588,20,0.00119846,1208.01,0.000278777,280.998,""
272293,20,0.00118513,1211.23,0.000275676,281.747,""
275463,20,0.00116914,1214.96,0.000271956,282.615,""
277746,20,0.00115746,1217.62,0.000269241,283.232,""
280292,20,0.00114488,1220.55,0.000266313,283.914,""
282720,20,0.00113324,1223.31,0.000263606,284.557,""
285309,20,0.00112015,1226.23,0.000260561,285.236,""
288073,20,0.00110743,1229.31,0.000257602,285.952,""
290440,20,0.00109639,1231.92,0.000255033,286.559,""
292887,20,0.00108486,1234.59,0.000252352,287.18,""
295553,20,0.00107248,1237.46,0.000249473,287.848,""
298316,20,0.00106109,1240.41,0.000246823,288.534,""
301346,20,0.00104646,1243.6,0.00024342,289.277,""
303492,20,0.0010365,1245.84,0.000241101,289.797,""
306647,20,0.00102287,1249.09,0.000237932,290.552,""
309488,20,0.00101161,1251.97,0.000235314,291.225,""
311673,20,0.00100206,1254.17,0.000233092,291.736,""
313592,20,0.000993899,1256.09,0.000231193,292.182,""
315602,20,0.000985229,1258.08,0.000229176,292.644,""
318417,20,0.000973865,1260.84,0.000226533,293.286,""
321909,20,0.000959811,1264.21,0.000223264,294.071,""
324396,20,0.000949463,1266.59,0.000220857,294.624,""
327080,20,0.000939281,1269.12,0.000218488,295.213,""
330060,20,0.000927404,1271.9,0.000215725,295.86,""
333124,20,0.000915087,1274.72,0.00021286,296.516,""
335257,20,0.000906875,1276.67,0.00021095,296.968,""
337906,20,0.000895838,1279.05,0.000208383,297.524,""
340609,20,0.000885677,1281.46,0.000206019,298.084,""
343254,20,0.000874785,1283.79,0.000203486,298.625,""
345779,20,0.000865048,1285.99,0.000201221,299.136,""
348744,20,0.000855709,1288.54,0.000199048,299.729,""
351428,20,0.000846171,1290.82,0.00019683,300.26,""
353110,20,0.000840483,1292.24,0.000195507,300.59,""
356210,20,0.00082896,1294.82,0.000192826,301.192,""
359630,20,0.000817987,1297.64,0.000190274,301.847,""
362492,20,0.000808432,1299.97,0.000188051,302.388,""
364659,20,0.000800487,1301.71,0.000186203,302.794,""
367683,20,0.000790952,1304.12,0.000183985,303.353,""
369602,20,0.000784445,1305.63,0.000182472,303.705,""
371680,20,0.000777504,1307.25,0.000180857,304.083,""
374066,20,0.00077118,1309.1,0.000179386,304.513,""
377203,20,0.000761687,1311.5,0.000177178,305.072,""
379843,20,0.000752472,1313.5,0.000175034,305.536,""
381864,20,0.000745572,1315.01,0.000173429,305.888,""
384451,20,0.000737269,1316.93,0.000171498,306.334,""
387365,20,0.000728185,1319.07,0.000169385,306.831,""
389932,20,0.000720205,1320.93,0.000167529,307.263,""
392290,20,0.000712693,1322.62,0.000165781,307.657,""
394378,20,0.000707503,1324.1,0.000164574,308.002,""
397013,20,0.000699914,1325.95,0.000162808,308.433,""
399159,20,0.000694012,1327.45,0.000161436,308.78,""
401352,20,0.000687397,1328.96,0.000159897,309.133,""
403375,20,0.000680861,1330.35,0.000158377,309.455,""
405486,20,0.000676645,1331.78,0.000157396,309.788,""
407257,20,0.000672045,1332.97,0.000156326,310.066,""
409467,20,0.000664672,1334.45,0.000154611,310.409,""
411707,20,0.000660253,1335.93,0.000153583,310.754,""
413044,20,0.000656452,1336.81,0.000152699,310.959,""
414575,20,0.00065181,1337.81,0.000151619,311.192,""
416045,20,0.000648292,1338.77,0.000150801,311.414,""
417403,20,0.000643796,1339.65,0.000149755,311.618,""
418513,20,0.000641203,1340.36,0.000149152,311.784,""
418544,20,0.000641315,1340.38,0.000149178,311.789,""
418555,20,0.000641355,1340.39,0.000149187,311.79,""
418555,20,NaN,NaN,NaN,NaN,"Ampoule removed"
418556,20,NaN,NaN,NaN,NaN,""
418557,20,NaN,NaN,NaN,NaN,""
418558,20,NaN,NaN,NaN,NaN,""
418559,20,NaN,NaN,NaN,NaN,""