File: TAInstCalorimetry/DATA/calorimetry_data_4.csv
"Time","Temperature [AmbientT(Therm3T)]","Temperature [Temperature]","Heat flow [Signal]","Heat [Signal]","Normalized heat flow [Signal]","Normalized heat [Signal]","Time markers"
-2213.15,24.0542,19.9999,-1.17463e-06,NaN,-2.74189e-07,NaN,""
-2188.97,24.0502,19.9997,-1.22497e-06,NaN,-2.85941e-07,NaN,""
-2174.02,24.0455,19.9997,-1.25612e-06,NaN,-2.93212e-07,NaN,""
-2152.22,24.0367,19.9997,-1.35148e-06,NaN,-3.15472e-07,NaN,""
-2135.21,24.0299,19.9997,-1.43342e-06,NaN,-3.34598e-07,NaN,""
-2131.08,24.0282,19.9997,-1.42084e-06,NaN,-3.31663e-07,NaN,""
-2116.15,24.0222,19.9993,-1.37537e-06,NaN,-3.21047e-07,NaN,""
-2100.62,24.0168,19.9996,-1.32805e-06,NaN,-3.10002e-07,NaN,""
-2085.08,24.0285,19.9999,-1.30935e-06,NaN,-3.05636e-07,NaN,""
-2064.1,24.0443,19.9999,-1.29011e-06,NaN,-3.01145e-07,NaN,""
-2042.75,24.0305,19.9998,-1.27054e-06,NaN,-2.96577e-07,NaN,""
-2035.24,24.0256,19.9998,-1.10171e-06,NaN,-2.5717e-07,NaN,""
-2029.89,23.9847,19.9998,-9.81379e-07,NaN,-2.2908e-07,NaN,""
-2024.88,23.9496,19.9998,-9.80087e-07,NaN,-2.28778e-07,NaN,""
-1993.52,24.0096,19.9997,-9.72005e-07,NaN,-2.26892e-07,NaN,""
-1970.67,24.0218,19.9997,-9.04333e-07,NaN,-2.11095e-07,NaN,""
-1966.05,24.0243,19.9997,-8.81122e-07,NaN,-2.05677e-07,NaN,""
-1943.64,24.0419,19.9996,-7.68579e-07,NaN,-1.79407e-07,NaN,""
-1924.65,24.0776,19.9995,-6.7322e-07,NaN,-1.57147e-07,NaN,""
-1907,24.0525,19.9997,-4.76039e-07,NaN,-1.1112e-07,NaN,""
-1892.67,24.0322,19.9999,-2.82708e-07,NaN,-6.59917e-08,NaN,""
-1875.02,24.0184,20,-4.45644e-08,NaN,-1.04025e-08,NaN,""
-1859.49,24.0086,20.0001,8.62835e-08,NaN,2.01409e-08,NaN,""
-1858.29,24.0078,20.0001,9.61572e-08,NaN,2.24456e-08,NaN,""
-1852.41,24.062,20.0001,1.4445e-07,NaN,3.37185e-08,NaN,""
-1848.34,24.0795,20,1.77908e-07,NaN,4.15285e-08,NaN,""
-1837.96,24.06,19.9997,2.63255e-07,NaN,6.14508e-08,NaN,""
-1811.87,24.011,19.9997,4.77715e-07,NaN,1.11511e-07,NaN,""
-1787.06,24.018,19.9998,6.7532e-07,NaN,1.57638e-07,NaN,""
-1757.02,24.0265,20.0001,6.58088e-07,NaN,1.53615e-07,NaN,""
-1742.65,24.0305,20.0002,8.60881e-07,NaN,2.00953e-07,NaN,""
-1730.15,24.0319,20,9.95207e-07,NaN,2.32308e-07,NaN,""
-1706.01,24.0319,19.9997,7.94139e-07,NaN,1.85373e-07,NaN,""
-1681.86,24.0319,19.9996,5.87841e-07,NaN,1.37218e-07,NaN,""
-1661.71,24.032,19.9996,3.64056e-07,NaN,8.49804e-08,NaN,""
-1649.52,24.0675,19.9995,2.28609e-07,NaN,5.33633e-08,NaN,""
-1640.8,24.0813,19.9995,2.02848e-07,NaN,4.73502e-08,NaN,""
-1622.97,24.0734,19.9996,1.5018e-07,NaN,3.50561e-08,NaN,""
-1580.93,24.0549,19.9999,-6.25272e-07,NaN,-1.45955e-07,NaN,""
-1564.79,24.0478,19.9997,-7.83334e-07,NaN,-1.82851e-07,NaN,""
-1552.77,24.0425,19.9995,-8.50401e-07,NaN,-1.98506e-07,NaN,""
-1543.3,24.0384,19.9995,-1.05935e-06,NaN,-2.4728e-07,NaN,""
-1533.84,24.0342,19.9997,-1.26829e-06,NaN,-2.96054e-07,NaN,""
-1525.26,24.0304,19.9998,-1.32442e-06,NaN,-3.09156e-07,NaN,""
-1516.86,24.0341,20,-1.38153e-06,NaN,-3.22486e-07,NaN,""
-1503.96,24.0397,19.9998,-1.62518e-06,NaN,-3.7936e-07,NaN,""
-1491.07,24.0454,19.9996,-1.86311e-06,NaN,-4.34899e-07,NaN,""
-1485.09,24.048,19.9996,-1.77334e-06,NaN,-4.13944e-07,NaN,""
-1479.11,24.0506,19.9997,-1.6876e-06,NaN,-3.93932e-07,NaN,""
-1464.88,24.0569,19.9998,-1.81511e-06,NaN,-4.23695e-07,NaN,""
-1449.99,24.0564,19.9999,-1.76677e-06,NaN,-4.12411e-07,NaN,""
-1435.09,24.0451,19.9992,-1.71843e-06,NaN,-4.01127e-07,NaN,""
-1427.76,24.0396,19.9992,-1.77294e-06,NaN,-4.13853e-07,NaN,""
-1420.43,24.034,19.9993,-1.82746e-06,NaN,-4.26578e-07,NaN,""
-1408.37,24.0248,19.9995,-1.55052e-06,NaN,-3.61933e-07,NaN,""
-1400.9,24.0387,19.9996,-1.52888e-06,NaN,-3.56883e-07,NaN,""
-1390.14,24.0587,19.9997,-1.6326e-06,NaN,-3.81092e-07,NaN,""
-1373,24.0863,19.9999,-1.37418e-06,NaN,-3.20771e-07,NaN,""
-1355.21,24.0507,19.9999,-1.10584e-06,NaN,-2.58134e-07,NaN,""
-1343.35,24.0332,19.9999,-1.12862e-06,NaN,-2.63451e-07,NaN,""
-1331.49,24.0371,19.9999,-1.1514e-06,NaN,-2.68768e-07,NaN,""
-1317.16,24.0417,19.9999,-8.26719e-07,NaN,-1.92978e-07,NaN,""
-1297.81,24.0479,19.9999,-7.37542e-07,NaN,-1.72162e-07,NaN,""
-1294.98,24.0488,19.9999,-6.60687e-07,NaN,-1.54222e-07,NaN,""
-1281.54,23.998,19.9999,-2.95612e-07,NaN,-6.90037e-08,NaN,""
-1271.93,23.9894,19.9999,-2.25775e-07,NaN,-5.2702e-08,NaN,""
-1256.31,24.0429,19.9999,-1.12184e-07,NaN,-2.61867e-08,NaN,""
-1242.77,24.0428,19.9999,1.3021e-07,NaN,3.03944e-08,NaN,""
-1233.24,24.0426,19.9999,2.78615e-07,NaN,6.50362e-08,NaN,""
-1211.71,24.0424,20,3.18672e-07,NaN,7.43865e-08,NaN,""
-1187.5,24.042,20,7.45481e-07,NaN,1.74015e-07,NaN,""
-1160.79,24.0417,20,6.51009e-07,NaN,1.51963e-07,NaN,""
-1147.54,24.0415,20.0001,7.88557e-07,NaN,1.8407e-07,NaN,""
-1127.02,24.0413,20.0001,6.07934e-07,NaN,1.41908e-07,NaN,""
-1089.48,24.0408,20.0001,4.19297e-07,NaN,9.7875e-08,NaN,""
-1069.02,24.0405,20.0002,5.94726e-07,NaN,1.38825e-07,NaN,""
-1053.93,24.0413,20.0002,4.78578e-07,NaN,1.11713e-07,NaN,""
-1033.24,24.0433,19.9995,3.19231e-07,NaN,7.4517e-08,NaN,""
-1021.84,24.0445,19.9994,3.97058e-07,NaN,9.2684e-08,NaN,""
-1010.45,24.0456,19.9994,4.74886e-07,NaN,1.10851e-07,NaN,""
-997.893,24.0469,19.9996,3.55203e-07,NaN,8.29139e-08,NaN,""
-978.797,24.0488,20.0001,1.73126e-07,NaN,4.04123e-08,NaN,""
-971.684,24.0495,20.0002,2.2681e-07,NaN,5.29435e-08,NaN,""
-964.57,24.0502,20,2.80494e-07,NaN,6.54748e-08,NaN,""
-956.895,24.0493,19.9998,2.48882e-07,NaN,5.80957e-08,NaN,""
-941.471,24.0452,19.9998,1.85361e-07,NaN,4.32682e-08,NaN,""
-913.086,24.0376,19.9998,5.85648e-07,NaN,1.36706e-07,NaN,""
-886.259,24.0304,19.9998,6.00747e-07,NaN,1.4023e-07,NaN,""
-867.664,24.0254,19.9997,6.11213e-07,NaN,1.42674e-07,NaN,""
-859.432,24.0703,19.9997,6.15847e-07,NaN,1.43755e-07,NaN,""
-853.674,24.0849,19.9996,6.89928e-07,NaN,1.61048e-07,NaN,""
-843.22,24.0713,19.9997,8.24431e-07,NaN,1.92444e-07,NaN,""
-832.766,24.0577,19.9998,8.32637e-07,NaN,1.9436e-07,NaN,""
-820.516,24.0417,19.9999,7.21544e-07,NaN,1.68428e-07,NaN,""
-801.537,24.0366,20.0001,8.39482e-07,NaN,1.95957e-07,NaN,""
-782.559,24.0507,19.9998,9.57419e-07,NaN,2.23487e-07,NaN,""
-765.995,24.0631,19.9996,9.79819e-07,NaN,2.28716e-07,NaN,""
-738.7,24.0425,19.9996,1.01673e-06,NaN,2.37332e-07,NaN,""
-725.766,24.0335,19.9996,1.03422e-06,NaN,2.41414e-07,NaN,""
-704.993,24.0481,19.9996,1.06231e-06,NaN,2.47972e-07,NaN,""
-684.22,24.0137,19.9997,1.0904e-06,NaN,2.54529e-07,NaN,""
-680.586,23.9797,19.9997,1.09532e-06,NaN,2.55676e-07,NaN,""
-676.11,24.0021,19.9998,1.08293e-06,NaN,2.52785e-07,NaN,""
-668.156,24.0543,19.9998,1.06092e-06,NaN,2.47648e-07,NaN,""
-645.5,24.0412,20,9.98236e-07,NaN,2.33015e-07,NaN,""
-634.324,24.0365,19.9997,8.91276e-07,NaN,2.08048e-07,NaN,""
-623.149,24.0408,19.9994,7.66705e-07,NaN,1.78969e-07,NaN,""
-610.721,24.0456,19.9996,6.24333e-07,NaN,1.45736e-07,NaN,""
-586.604,24.055,19.9999,3.43653e-07,NaN,8.02178e-08,NaN,""
-570.168,24.0565,19.9999,4.74908e-07,NaN,1.10856e-07,NaN,""
-542.582,24.0366,19.9998,7.2774e-07,NaN,1.69874e-07,NaN,""
-522.985,24.0374,19.9998,8.65273e-07,NaN,2.01978e-07,NaN,""
-464.828,24.0657,20,1.27342e-06,NaN,2.9725e-07,NaN,""
-450.243,24.0663,19.9999,1.16849e-06,NaN,2.72756e-07,NaN,""
-435.658,24.0658,19.9997,1.06356e-06,NaN,2.48262e-07,NaN,""
-415.149,24.0649,19.9995,1.26885e-06,NaN,2.96184e-07,NaN,""
-414.149,24.0649,19.9995,1.35843e-05,NaN,3.17094e-06,NaN,""
-412.797,24.0649,19.9995,NaN,NaN,NaN,NaN,""
-392.711,24.0641,19.9998,NaN,NaN,NaN,NaN,""
-363.899,24.0629,19.9995,NaN,NaN,NaN,NaN,""
-335.547,24.0618,20,NaN,NaN,NaN,NaN,""
-321.293,24.0613,19.9999,NaN,NaN,NaN,NaN,""
-290.149,23.9809,19.9998,NaN,NaN,NaN,NaN,""
-280.215,24.017,19.9998,NaN,NaN,NaN,NaN,""
-270.281,24.0532,19.9998,NaN,NaN,NaN,NaN,""
-253.833,24.0602,19.9999,NaN,NaN,NaN,NaN,""
-235.629,24.068,19.9995,NaN,NaN,NaN,NaN,""
-224.05,24.0545,19.9995,NaN,NaN,NaN,NaN,""
-195.928,24.0216,20,NaN,NaN,NaN,NaN,""
-170.235,24.0252,19.9998,NaN,NaN,NaN,NaN,""
-160.703,24.0375,19.9997,NaN,NaN,NaN,NaN,""
-135.01,24.0504,19.9996,NaN,NaN,NaN,NaN,""
-107.308,24.0629,19.9996,NaN,NaN,NaN,NaN,""
-88.1798,24.0314,19.9996,NaN,NaN,NaN,NaN,""
-57.6798,24.118,19.9997,NaN,NaN,NaN,NaN,""
-24.1114,24.1145,19.9997,NaN,NaN,NaN,NaN,""
9.45701,24.1111,19.9998,NaN,NaN,NaN,NaN,""
46.0347,24.126,19.9998,NaN,NaN,NaN,NaN,""
90.6405,24.1442,19.9994,NaN,NaN,NaN,NaN,""
119.394,24.1559,20,NaN,NaN,NaN,NaN,""
121.023,24.1566,20.0001,NaN,NaN,NaN,NaN,""
159.412,24.2137,20.0007,NaN,NaN,NaN,NaN,""
179.953,24.2011,20.0001,NaN,NaN,NaN,NaN,""
193.745,24.1927,19.9999,NaN,NaN,NaN,NaN,""
220.073,24.1805,19.9999,NaN,NaN,NaN,NaN,""
241.454,24.1777,20,NaN,NaN,NaN,NaN,""
245.5,24.1771,20,NaN,NaN,NaN,NaN,""
256.976,24.0813,20.0001,NaN,NaN,NaN,NaN,""
274.848,24.123,20.0001,NaN,NaN,NaN,NaN,""
303.409,24.1121,20.0001,NaN,NaN,NaN,NaN,""
316.476,24.1071,19.9998,NaN,NaN,NaN,NaN,""
358.181,24.0912,20.0002,NaN,NaN,NaN,NaN,""
381.247,24.0864,20.0004,NaN,NaN,NaN,NaN,""
404.312,24.0863,20.0005,NaN,NaN,NaN,NaN,""
425.922,24.0861,20,NaN,NaN,NaN,NaN,""
438.886,24.1021,19.9995,NaN,NaN,NaN,NaN,""
451.849,24.1453,19.999,NaN,NaN,NaN,NaN,""
463.941,24.1291,19.9993,NaN,NaN,NaN,NaN,""
469.851,24.0896,19.9994,NaN,NaN,NaN,NaN,""
488.028,24.091,19.9998,NaN,NaN,NaN,NaN,""
518.421,24.0932,19.9998,NaN,NaN,NaN,NaN,""
542.413,24.1154,19.9998,NaN,NaN,NaN,NaN,""
566.406,24.1377,19.9997,NaN,NaN,NaN,NaN,""
581.027,24.0837,19.9997,NaN,NaN,NaN,NaN,""
626.173,24.1362,19.9996,NaN,NaN,NaN,NaN,""
662.723,24.1173,19.9995,NaN,NaN,NaN,NaN,""
699.273,24.0985,19.9996,NaN,NaN,NaN,NaN,""
774.416,24.139,19.9999,NaN,NaN,NaN,NaN,""
816.926,24.162,20.0001,NaN,NaN,NaN,NaN,""
849.441,24.1288,20.0001,NaN,NaN,NaN,NaN,""
864.73,24.1131,19.9998,NaN,NaN,NaN,NaN,""
881.956,24.0955,20.0001,NaN,NaN,NaN,NaN,""
896.266,24.0893,20.0003,NaN,NaN,NaN,NaN,""
949.76,24.066,19.9998,NaN,NaN,NaN,NaN,""
962.357,24.0605,19.9997,NaN,NaN,NaN,NaN,""
984.101,24.1597,19.9996,NaN,NaN,NaN,NaN,""
1003.24,24.1314,19.9996,NaN,NaN,NaN,NaN,""
1022.38,24.103,20,NaN,NaN,NaN,NaN,""
1038.55,24.1005,20.0001,NaN,NaN,NaN,NaN,""
1062.68,24.0966,19.9998,NaN,NaN,NaN,NaN,""
1092.72,24.1166,19.9999,NaN,NaN,NaN,NaN,""
1115.7,24.1685,19.9999,NaN,NaN,NaN,NaN,""
1133.58,24.1341,19.9999,NaN,NaN,NaN,NaN,""
1149.1,24.109,19.9999,NaN,NaN,NaN,NaN,""
1209.45,24.115,20,NaN,NaN,NaN,NaN,""
1230.31,24.0866,19.9999,NaN,NaN,NaN,NaN,""
1251.17,24.0582,19.9996,NaN,NaN,NaN,NaN,""
1269.53,24.0762,19.9995,NaN,NaN,NaN,NaN,""
1285.26,24.0915,19.9999,NaN,NaN,NaN,NaN,""
1303.62,24.0908,19.9999,NaN,NaN,NaN,NaN,""
1346.05,24.0818,19.9997,NaN,NaN,NaN,NaN,""
1383.14,24.0983,19.9997,NaN,NaN,NaN,NaN,""
1437.04,24.1223,19.9998,NaN,NaN,NaN,NaN,""
1501.95,24.1291,19.9999,NaN,NaN,NaN,NaN,""
1519.24,24.0699,20,NaN,NaN,NaN,NaN,""
1529.43,24.0617,20,NaN,NaN,NaN,NaN,""
1585.18,24.0807,20.0001,NaN,NaN,NaN,NaN,""
1585.86,24.0813,20.0001,NaN,NaN,NaN,NaN,""
1611.35,24.1026,19.9995,NaN,NaN,NaN,NaN,""
1652.59,24.1372,19.9996,NaN,NaN,NaN,NaN,""
1661.85,24.0853,19.9996,NaN,NaN,NaN,NaN,""
1707.95,24.0967,19.9997,NaN,NaN,NaN,NaN,""
1734.77,24.098,19.9998,NaN,NaN,NaN,NaN,""
1761.59,24.0993,19.9998,NaN,NaN,NaN,NaN,""
1780.85,24.0239,19.9998,NaN,NaN,NaN,NaN,""
1810.1,24.0817,19.9998,NaN,NaN,NaN,NaN,""
1828.6,24.1429,19.9998,NaN,NaN,NaN,NaN,""
1839.87,24.148,20,NaN,NaN,NaN,NaN,""
1871.8,24.1117,20.0005,NaN,NaN,NaN,NaN,""
1890.32,24.081,20.0001,NaN,NaN,NaN,NaN,""
1905.93,24.0532,19.9998,NaN,NaN,NaN,NaN,""
1919.74,24.0766,19.9997,NaN,NaN,NaN,NaN,""
1933.55,24.1001,19.9996,NaN,NaN,NaN,NaN,""
1949.95,24.0928,19.9996,NaN,NaN,NaN,NaN,""
1970.84,24.0834,19.9998,NaN,NaN,NaN,NaN,""
1987.05,24.0879,19.9997,NaN,NaN,NaN,NaN,""
2000.76,24.0917,19.9996,NaN,NaN,NaN,NaN,""
2020.45,24.0972,19.9997,NaN,NaN,NaN,NaN,""
2034.85,24.1164,19.9997,NaN,NaN,NaN,NaN,""
2047.69,24.1271,19.9995,NaN,NaN,NaN,NaN,""
2065.09,24.0791,19.9993,NaN,NaN,NaN,NaN,""
2079.04,24.0886,19.9995,NaN,NaN,NaN,NaN,""
2088.85,24.1554,19.9997,NaN,NaN,NaN,NaN,""
2107,24.1638,19.9999,NaN,NaN,NaN,NaN,""
2125.37,24.1722,20,NaN,NaN,NaN,NaN,""
2139.98,24.1462,20.0001,NaN,NaN,NaN,NaN,""
2154.58,24.1203,19.9999,NaN,NaN,NaN,NaN,""
2175.03,24.1047,19.9998,NaN,NaN,NaN,NaN,""
2188.91,24.0941,19.9995,NaN,NaN,NaN,NaN,""
2198.07,24.1356,19.9993,NaN,NaN,NaN,NaN,""
2203.52,24.137,19.9994,NaN,NaN,NaN,NaN,""
2225.34,24.0986,19.9997,NaN,NaN,NaN,NaN,""
2233.72,24.1227,19.9998,NaN,NaN,NaN,NaN,""
2242.1,24.1468,19.9998,NaN,NaN,NaN,NaN,""
2277.56,24.0834,19.9998,NaN,NaN,NaN,NaN,""
2309.16,24.0934,19.9998,NaN,NaN,NaN,NaN,""
2327.81,24.1262,19.9998,NaN,NaN,NaN,NaN,""
2344.73,24.1667,19.9998,NaN,NaN,NaN,NaN,""
2380.88,24.1297,19.9999,NaN,NaN,NaN,NaN,""
2404.32,24.1805,19.9999,NaN,NaN,NaN,NaN,""
2412.85,24.0843,19.9999,NaN,NaN,NaN,NaN,""
2423.01,24.1333,19.9999,NaN,NaN,NaN,NaN,""
2428.84,24.1336,19.9998,NaN,NaN,NaN,NaN,""
2446.69,24.105,19.9996,NaN,NaN,NaN,NaN,""
2465.85,24.1439,19.9994,NaN,NaN,NaN,NaN,""
2473.73,24.1416,19.9996,NaN,NaN,NaN,NaN,""
2481.61,24.1374,19.9999,NaN,NaN,NaN,NaN,""
2508.22,24.1232,19.9999,NaN,NaN,NaN,NaN,""
2524.16,24.1459,19.9999,NaN,NaN,NaN,NaN,""
2538.47,24.157,20,NaN,NaN,NaN,NaN,""
2551.37,24.1004,20.0001,NaN,NaN,NaN,NaN,""
2564.18,24.1298,20.0001,NaN,NaN,NaN,NaN,""
2577,24.1592,19.9998,NaN,NaN,NaN,NaN,""
2591.46,24.1351,19.9997,NaN,NaN,NaN,NaN,""
2608.85,24.1061,19.9997,NaN,NaN,NaN,NaN,""
2629.19,24.1343,19.9996,NaN,NaN,NaN,NaN,""
2665.62,24.1106,19.9996,NaN,NaN,NaN,NaN,""
2694.71,24.1267,19.9998,NaN,NaN,NaN,NaN,""
2698.95,24.1255,19.9998,NaN,NaN,NaN,NaN,""
2708.98,24.1064,19.9998,NaN,NaN,NaN,NaN,""
2745.43,24.1227,20,NaN,NaN,NaN,NaN,""
2778.16,24.1373,19.9997,NaN,NaN,NaN,NaN,""
2792.09,24.1219,19.9995,NaN,NaN,NaN,NaN,""
2801.47,24.1337,19.9996,NaN,NaN,NaN,NaN,""
2805.81,24.1491,19.9996,NaN,NaN,NaN,NaN,""
2868.63,24.1193,19.9996,NaN,NaN,NaN,NaN,""
2903.35,24.0994,19.9999,NaN,NaN,NaN,NaN,""
2938.07,24.0607,20.0001,NaN,NaN,NaN,NaN,""
2941.93,24.0564,20,NaN,NaN,NaN,NaN,""
2954.18,24.1062,19.9998,NaN,NaN,NaN,NaN,""
2967.07,24.0913,19.9995,NaN,NaN,NaN,NaN,""
2979.72,24.0776,19.9996,NaN,NaN,NaN,NaN,""
3001.77,24.1394,19.9998,NaN,NaN,NaN,NaN,""
3018.48,24.1401,19.9999,NaN,NaN,NaN,NaN,""
3035.18,24.1407,19.9999,NaN,NaN,NaN,NaN,""
3072.23,24.1824,19.9997,NaN,NaN,NaN,NaN,""
3090.79,24.1419,19.9996,NaN,NaN,NaN,NaN,""
3095.52,24.1352,19.9996,NaN,NaN,NaN,NaN,""
3118.23,24.1028,19.9998,NaN,NaN,NaN,NaN,""
3133.02,24.1344,19.9998,NaN,NaN,NaN,NaN,""
3147.82,24.1661,19.9995,NaN,NaN,NaN,NaN,""
3160.73,24.157,19.9996,NaN,NaN,NaN,NaN,""
3189.69,24.1367,20.0001,NaN,NaN,NaN,NaN,""
3212.11,24.1275,20,NaN,NaN,NaN,NaN,""
3234.52,24.1243,19.9998,NaN,NaN,NaN,NaN,""
3272.12,24.1189,19.9999,NaN,NaN,NaN,NaN,""
3308.85,24.0833,20,NaN,NaN,NaN,NaN,""
3327.61,24.065,19.9993,NaN,NaN,NaN,NaN,""
3338.28,24.0975,19.9994,NaN,NaN,NaN,NaN,""
3362.4,24.1708,19.9998,NaN,NaN,NaN,NaN,""
3380.49,24.1613,19.9999,NaN,NaN,NaN,NaN,""
3431.97,24.1343,19.9998,NaN,NaN,NaN,NaN,""
3456.99,24.1408,19.9998,NaN,NaN,NaN,NaN,""
3482,24.1472,19.9998,NaN,NaN,NaN,NaN,""
3497.01,24.2562,19.9998,NaN,NaN,NaN,NaN,""
3503.35,24.2537,19.9998,NaN,NaN,NaN,NaN,""
3518.48,24.2478,20.0003,NaN,NaN,NaN,NaN,""
3529.64,24.218,20.0002,NaN,NaN,NaN,NaN,""
3543.87,24.1775,20.0002,NaN,NaN,NaN,NaN,""
3576.99,24.2157,20.0001,NaN,NaN,NaN,NaN,""
3590.72,24.2618,20,NaN,NaN,NaN,NaN,""
3604.46,24.3079,19.9999,NaN,NaN,NaN,NaN,""
3622.85,24.2455,19.9997,NaN,NaN,NaN,NaN,""
3634.68,24.2054,20,NaN,NaN,NaN,NaN,""
3645.74,24.1993,20.0002,NaN,NaN,NaN,NaN,""
3675.84,24.1828,19.9999,NaN,NaN,NaN,NaN,""
3692.48,24.1754,20,NaN,NaN,NaN,NaN,""
3709.12,24.1916,20.0001,NaN,NaN,NaN,NaN,""
3730.45,24.2123,19.9997,NaN,NaN,NaN,NaN,""
3743.68,24.2036,19.9996,NaN,NaN,NaN,NaN,""
3761.19,24.1921,19.9998,NaN,NaN,NaN,NaN,""
3772.95,24.1251,19.9999,NaN,NaN,NaN,NaN,""
3794.41,24.1417,20.0001,NaN,NaN,NaN,NaN,""
3813.61,24.1545,20.0001,NaN,NaN,NaN,NaN,""
3833.29,24.1517,20.0001,NaN,NaN,NaN,NaN,""
3857.7,24.1482,20.0004,NaN,NaN,NaN,NaN,""
3874.46,24.1458,20.0001,NaN,NaN,NaN,NaN,""
3886.98,24.1214,19.9999,NaN,NaN,NaN,NaN,""
3898.48,24.0994,20,NaN,NaN,NaN,NaN,""
3909.98,24.137,20.0002,NaN,NaN,NaN,NaN,""
3924.62,24.185,20,NaN,NaN,NaN,NaN,""
3936.05,24.1807,19.9999,NaN,NaN,NaN,NaN,""
3961.57,24.171,20.0001,NaN,NaN,NaN,NaN,""
3990.36,24.1601,19.9995,NaN,NaN,NaN,NaN,""
4019.97,24.1488,19.9998,NaN,NaN,NaN,NaN,""
4057.04,24.1364,19.9998,NaN,NaN,NaN,NaN,""
4094.11,24.1364,19.9997,NaN,NaN,NaN,NaN,""
4137.82,24.1363,19.9996,NaN,NaN,NaN,NaN,""
4158.85,24.1909,19.9996,NaN,NaN,NaN,NaN,""
4181.61,24.1666,19.9996,NaN,NaN,NaN,NaN,""
4204.36,24.1424,19.9998,NaN,NaN,NaN,NaN,""
4234.84,24.147,19.9999,NaN,NaN,NaN,NaN,""
4244.93,24.1486,19.9997,NaN,NaN,NaN,NaN,""
4254.11,24.1551,19.9996,NaN,NaN,NaN,NaN,""
4275.04,24.1701,19.9996,NaN,NaN,NaN,NaN,""
4307.16,24.1219,19.9997,NaN,NaN,NaN,NaN,""
4341.76,24.1331,19.9997,NaN,NaN,NaN,NaN,""
4376.36,24.1444,19.9995,NaN,NaN,NaN,NaN,""
4411.49,24.1497,19.9995,NaN,NaN,NaN,NaN,""
4431.72,24.1527,19.9998,NaN,NaN,NaN,NaN,""
4467.82,24.1581,19.9997,NaN,NaN,NaN,NaN,""
4492.37,24.1617,20.0003,NaN,NaN,NaN,NaN,""
4528.35,24.1671,19.9999,NaN,NaN,NaN,NaN,""
4580.95,24.1749,20,NaN,NaN,NaN,NaN,""
4583.35,24.1679,20,NaN,NaN,NaN,NaN,""
4598.49,24.1237,19.9996,NaN,NaN,NaN,NaN,""
4607.17,24.125,19.9995,NaN,NaN,NaN,NaN,""
4622.39,24.1272,19.9996,NaN,NaN,NaN,NaN,""
4640.85,24.13,20.0002,NaN,NaN,NaN,NaN,""
4702.64,24.1391,19.9999,NaN,NaN,NaN,NaN,""
4758.26,24.1291,19.9999,NaN,NaN,NaN,NaN,""
4813.88,24.1078,19.9998,NaN,NaN,NaN,NaN,""
4844.77,24.096,19.9994,NaN,NaN,NaN,NaN,""
4858.3,24.1385,19.9994,NaN,NaN,NaN,NaN,""
4871.84,24.1811,19.9995,NaN,NaN,NaN,NaN,""
4910.09,24.1428,19.9996,NaN,NaN,NaN,NaN,""
[...]
123703,24.211,19.9989,0.00425919,805.188,0.000994208,187.952,""
125466,24.1479,20.0001,0.00413709,812.589,0.000965708,189.68,""
127187,24.1674,19.9997,0.00402054,819.61,0.000938501,191.319,""
128956,24.1907,20,0.00390315,826.616,0.0009111,192.954,""
130739,24.1619,19.9996,0.00378831,833.472,0.000884292,194.555,""
132406,24.1459,19.9995,0.00368317,839.699,0.000859749,196.008,""
134200,24.1406,19.9999,0.00357447,846.211,0.000834377,197.528,""
136085,24.1111,19.9992,0.00346324,852.844,0.000808412,199.077,""
137814,24.0984,19.9997,0.00336531,858.747,0.000785553,200.454,""
139474,24.0851,20,0.00327435,864.256,0.000764322,201.74,""
141317,24.0874,20.0003,0.00317817,870.203,0.000741869,203.129,""
143004,24.0725,19.9995,0.00309382,875.493,0.00072218,204.363,""
144890,24.0294,20.0002,0.00300416,881.241,0.000701252,205.705,""
146716,24.0654,20,0.00292116,886.651,0.000681876,206.968,""
148400,24.0325,19.9999,0.00284901,891.509,0.000665034,208.102,""
150396,23.9997,19.9998,0.00276814,897.115,0.000646157,209.411,""
152302,24.0047,19.9997,0.00269522,902.322,0.000629137,210.626,""
154491,24.0045,19.9998,0.00261803,908.137,0.000611118,211.983,""
156356,23.9807,20,0.00255647,912.96,0.000596748,213.109,""
158283,23.9824,19.9999,0.00249743,917.831,0.000582967,214.246,""
160027,23.9082,19.9998,0.00244646,922.14,0.000571069,215.252,""
162353,23.9291,19.9996,0.0023848,927.759,0.000556677,216.564,""
164217,23.919,19.9998,0.00233839,932.159,0.000545843,217.591,""
166010,23.8846,19.9998,0.00229655,936.313,0.000536075,218.56,""
168248,23.9304,19.9997,0.00224765,941.399,0.000524661,219.748,""
170572,23.9234,20.0001,0.00220174,946.567,0.000513945,220.954,""
172781,23.9024,19.9997,0.00216073,951.386,0.000504372,222.079,""
174960,23.9147,19.9999,0.00212369,956.052,0.000495726,223.168,""
177320,23.9493,19.9997,0.00208637,961.021,0.000487014,224.328,""
179748,23.9422,19.9996,0.00205171,966.046,0.000478924,225.501,""
182091,23.9697,19.9996,0.00202013,970.815,0.000471553,226.614,""
184184,23.9758,20,0.00199319,975.014,0.000465264,227.594,""
186224,23.9273,19.9992,0.00196813,979.055,0.000459414,228.538,""
188343,23.9445,19.9997,0.001944,983.198,0.000453781,229.505,""
190660,23.9509,19.9998,0.00191909,987.672,0.000447967,230.549,""
192961,23.967,19.9997,0.0018939,992.058,0.000442086,231.573,""
195324,23.9663,19.9998,0.00186933,996.502,0.000436351,232.61,""
197513,23.97,19.9999,0.00184843,1000.57,0.000431473,233.56,""
200013,24.0069,20.0001,0.00182509,1005.16,0.000426026,234.632,""
202112,23.9566,19.9997,0.0018057,1008.97,0.000421499,235.521,""
204508,23.9609,19.9997,0.00178457,1013.27,0.000416566,236.525,""
206752,23.9661,19.9998,0.00176525,1017.26,0.000412056,237.455,""
208748,24.0035,19.9998,0.00174835,1020.76,0.000408111,238.273,""
210802,23.9381,19.9999,0.00173083,1024.34,0.000404023,239.107,""
213057,23.9611,19.9996,0.00171234,1028.22,0.000399705,240.013,""
215159,23.9424,19.9998,0.00169519,1031.8,0.000395701,240.849,""
217257,23.9661,19.9998,0.00167817,1035.34,0.00039173,241.675,""
219532,23.9317,19.9997,0.00165979,1039.13,0.000387438,242.562,""
221498,23.9554,19.9994,0.00164465,1042.38,0.000383904,243.32,""
223851,23.9081,19.9998,0.00162547,1046.23,0.000379429,244.218,""
226285,23.9155,19.9997,0.001606,1050.16,0.000374883,245.136,""
228641,23.9096,19.9994,0.00158728,1053.92,0.000370515,246.014,""
230855,23.8791,19.9997,0.00157024,1057.42,0.000366536,246.83,""
233281,23.8762,19.9996,0.00155113,1061.21,0.000362076,247.714,""
235193,23.8934,19.9997,0.00153676,1064.16,0.000358721,248.403,""
237474,23.8597,19.9994,0.00151908,1067.64,0.000354593,249.216,""
239467,23.86,19.9996,0.00150398,1070.66,0.00035107,249.92,""
241863,23.8722,20.0002,0.00148631,1074.24,0.000346945,250.756,""
244049,23.8453,19.9996,0.00147011,1077.47,0.000343164,251.51,""
246226,23.8523,19.9997,0.00145427,1080.65,0.000339465,252.253,""
248314,23.8587,20.0001,0.0014391,1083.67,0.000335925,252.958,""
250515,23.8398,19.9998,0.00142231,1086.82,0.000332005,253.694,""
252582,23.8481,19.9996,0.00140789,1089.75,0.000328639,254.376,""
255114,23.8485,19.9997,0.00138926,1093.29,0.000324291,255.203,""
257197,23.8753,20,0.0013741,1096.17,0.000320751,255.874,""
259107,23.8708,19.9996,0.00136098,1098.78,0.00031769,256.484,""
261106,23.964,20.0003,0.00134661,1101.48,0.000314335,257.116,""
263534,23.9212,20.0002,0.00132967,1104.73,0.00031038,257.874,""
265839,23.9542,19.9999,0.00131388,1107.78,0.000306695,258.585,""
267914,23.9718,19.9999,0.00129984,1110.49,0.000303417,259.219,""
270141,23.9799,19.9998,0.00128416,1113.37,0.000299757,259.89,""
272091,23.9662,19.9998,0.00127066,1115.86,0.000296605,260.472,""
274214,23.9665,19.9999,0.00125699,1118.54,0.000293416,261.098,""
276390,23.8867,19.9995,0.00124225,1121.26,0.000289975,261.733,""
278662,23.9721,19.9999,0.00122688,1124.07,0.000286386,262.388,""
280727,24.1436,20,0.00121368,1126.59,0.000283306,262.976,""
283445,24.1534,20,0.00119676,1129.87,0.000279356,263.741,""
285424,24.1406,19.9999,0.001184,1132.22,0.000276376,264.291,""
287905,24.1986,20.0001,0.00116829,1135.14,0.000272711,264.972,""
290235,24.2427,19.9997,0.00115385,1137.85,0.00026934,265.603,""
292551,24.113,19.9997,0.00113991,1140.5,0.000266086,266.223,""
294066,24.1051,19.9999,0.00113035,1142.22,0.000263854,266.625,""
294066,24.1051,19.9999,NaN,NaN,NaN,NaN,"Ampoule removed"
294109,24.1103,19.9996,NaN,NaN,NaN,NaN,""
294152,24.0978,19.9993,NaN,NaN,NaN,NaN,""
294201,24.077,19.9999,NaN,NaN,NaN,NaN,""
294227,24.1138,19.9998,NaN,NaN,NaN,NaN,""
294253,24.1505,19.9997,NaN,NaN,NaN,NaN,""
294274,24.1446,19.9997,NaN,NaN,NaN,NaN,""
294295,24.1388,20.0003,NaN,NaN,NaN,NaN,""
294310,24.1271,20.0001,NaN,NaN,NaN,NaN,""
294327,24.1131,19.9994,NaN,NaN,NaN,NaN,""
294348,24.1092,19.9995,NaN,NaN,NaN,NaN,""
294370,24.1271,19.9996,NaN,NaN,NaN,NaN,""
294400,24.1518,19.9996,NaN,NaN,NaN,NaN,""
294428,24.1346,19.9996,NaN,NaN,NaN,NaN,""
294456,24.1171,20.0003,NaN,NaN,NaN,NaN,""
294485,24.1197,20.0002,NaN,NaN,NaN,NaN,""
294574,24.1284,19.9998,NaN,NaN,NaN,NaN,""
294724,24.143,19.9998,NaN,NaN,NaN,NaN,""
294763,24.145,19.9998,NaN,NaN,NaN,NaN,""
294802,24.1471,19.9998,NaN,NaN,NaN,NaN,""
294813,24.056,19.9998,NaN,NaN,NaN,NaN,""
294836,24.1354,19.9998,NaN,NaN,NaN,NaN,""
294870,24.1425,19.9998,NaN,NaN,NaN,NaN,""
294905,24.0897,19.9998,NaN,NaN,NaN,NaN,""
294909,24.1163,19.9998,NaN,NaN,NaN,NaN,""
294918,24.1787,19.9998,NaN,NaN,NaN,NaN,""
294957,24.1193,19.9996,NaN,NaN,NaN,NaN,""
294992,24.1108,19.9998,NaN,NaN,NaN,NaN,""
295003,24.1081,20,NaN,NaN,NaN,NaN,""
295033,24.1009,19.9998,NaN,NaN,NaN,NaN,""
295034,24.1007,19.9998,NaN,NaN,NaN,NaN,""
295066,24.0569,19.9999,NaN,NaN,NaN,NaN,""
295086,24.119,20,NaN,NaN,NaN,NaN,""
295094,24.1198,20,NaN,NaN,NaN,NaN,""
295114,24.1217,20.0005,NaN,NaN,NaN,NaN,""
295135,24.1237,19.9999,NaN,NaN,NaN,NaN,""
295150,24.1279,19.9996,NaN,NaN,NaN,NaN,""
295189,24.1382,19.9997,NaN,NaN,NaN,NaN,""
295200,24.0989,19.9998,NaN,NaN,NaN,NaN,""
295216,24.1401,19.9998,NaN,NaN,NaN,NaN,""
295233,24.1345,19.9998,NaN,NaN,NaN,NaN,""
295251,24.1288,19.9998,NaN,NaN,NaN,NaN,""
295278,24.0792,19.9998,NaN,NaN,NaN,NaN,""
295328,24.1245,19.9997,NaN,NaN,NaN,NaN,""
295342,24.1168,20.0001,NaN,NaN,NaN,NaN,""
295356,24.1056,20.0006,NaN,NaN,NaN,NaN,""
295366,24.0976,20.0003,NaN,NaN,NaN,NaN,""
295375,24.1009,20,NaN,NaN,NaN,NaN,""
295421,24.1176,19.9998,NaN,NaN,NaN,NaN,""
295448,24.1257,19.9998,NaN,NaN,NaN,NaN,""
295476,24.1232,19.9998,NaN,NaN,NaN,NaN,""
295506,24.1204,20.0004,NaN,NaN,NaN,NaN,""
295526,24.1186,20,NaN,NaN,NaN,NaN,""
295558,24.1157,20,NaN,NaN,NaN,NaN,""
295626,24.1095,19.9994,NaN,NaN,NaN,NaN,""
295638,24.1095,19.9998,NaN,NaN,NaN,NaN,""
295650,24.1122,20.0001,NaN,NaN,NaN,NaN,""
295701,24.1236,19.9998,NaN,NaN,NaN,NaN,""
295771,24.1392,19.9999,NaN,NaN,NaN,NaN,""
295791,24.1436,19.9994,NaN,NaN,NaN,NaN,""
295802,24.1338,19.9996,NaN,NaN,NaN,NaN,""
295809,24.1272,19.9997,NaN,NaN,NaN,NaN,""
295824,24.113,19.9994,NaN,NaN,NaN,NaN,""
295846,24.1262,19.9998,NaN,NaN,NaN,NaN,""
295859,24.1548,20,NaN,NaN,NaN,NaN,""
295868,24.0932,20.0002,NaN,NaN,NaN,NaN,""
295874,24.0865,20.0002,NaN,NaN,NaN,NaN,""
295911,24.1598,20,NaN,NaN,NaN,NaN,""
295939,24.1342,19.9999,NaN,NaN,NaN,NaN,""
295967,24.1086,19.9999,NaN,NaN,NaN,NaN,""
296006,24.1895,20,NaN,NaN,NaN,NaN,""
296041,24.1992,20.0001,NaN,NaN,NaN,NaN,""
296061,24.2425,19.9999,NaN,NaN,NaN,NaN,""
296087,24.317,19.9997,NaN,NaN,NaN,NaN,""
296108,24.1736,19.9996,NaN,NaN,NaN,NaN,""
296118,24.1734,19.9996,NaN,NaN,NaN,NaN,""
296133,24.1789,19.9997,NaN,NaN,NaN,NaN,""
296165,24.1476,19.9998,NaN,NaN,NaN,NaN,""
296182,24.2056,19.9999,NaN,NaN,NaN,NaN,""
296222,24.1922,20,NaN,NaN,NaN,NaN,""
296259,24.1811,20.0002,NaN,NaN,NaN,NaN,""
296309,24.2058,20.0005,NaN,NaN,NaN,NaN,""