File: TAInstCalorimetry/DATA/calorimetry_data_5.csv
"Time","Temperature [AmbientT(Therm3T)]","Temperature [Temperature]","Heat flow [Signal]","Heat [Signal]","Normalized heat flow [Signal]","Normalized heat [Signal]","Time markers"
-2249.76,24.5374,19.9996,-1.49987e-06,NaN,-3.49865e-07,NaN,""
-2234.15,24.5,19.9999,-1.52302e-06,NaN,-3.55265e-07,NaN,""
-2225.12,24.5027,19.9998,-1.50327e-06,NaN,-3.50658e-07,NaN,""
-2204.04,24.509,19.9997,-1.38696e-06,NaN,-3.23526e-07,NaN,""
-2180.3,24.5151,19.9996,-1.47879e-06,NaN,-3.44947e-07,NaN,""
-2129.48,24.5107,19.9999,-1.6754e-06,NaN,-3.9081e-07,NaN,""
-2116.76,24.5096,19.9999,-1.74205e-06,NaN,-4.06357e-07,NaN,""
-2104.03,24.5085,19.9998,-1.8087e-06,NaN,-4.21903e-07,NaN,""
-2090.49,24.5159,19.9997,-1.59192e-06,NaN,-3.71336e-07,NaN,""
-2076.96,24.5283,19.9998,-1.37514e-06,NaN,-3.20769e-07,NaN,""
-2054.26,24.549,20.0002,-1.5952e-06,NaN,-3.72101e-07,NaN,""
-2050.38,24.5525,20.0002,-1.57361e-06,NaN,-3.67066e-07,NaN,""
-2043.63,24.5087,20.0001,-1.53601e-06,NaN,-3.58296e-07,NaN,""
-2039.85,24.5033,20.0001,-1.56471e-06,NaN,-3.64989e-07,NaN,""
-2027.76,24.5029,20,-1.65648e-06,NaN,-3.86397e-07,NaN,""
-2015.54,24.5025,19.9998,-1.37228e-06,NaN,-3.20102e-07,NaN,""
-2008.82,24.5023,19.9998,-1.33873e-06,NaN,-3.12277e-07,NaN,""
-1992.36,24.5018,19.9998,-1.3231e-06,NaN,-3.08632e-07,NaN,""
-1969.49,24.501,19.9998,-9.40192e-07,NaN,-2.19312e-07,NaN,""
-1945.91,24.4872,19.9998,-9.0777e-07,NaN,-2.11749e-07,NaN,""
-1922.44,24.467,19.9999,-8.75507e-07,NaN,-2.04224e-07,NaN,""
-1922.32,24.4669,19.9999,-8.75348e-07,NaN,-2.04187e-07,NaN,""
-1910.88,24.4684,19.9999,-6.317e-07,NaN,-1.47353e-07,NaN,""
-1899.43,24.4931,20,-3.88053e-07,NaN,-9.05185e-08,NaN,""
-1890.34,24.5126,20,-3.41855e-07,NaN,-7.97423e-08,NaN,""
-1881.26,24.5051,19.9999,-2.95658e-07,NaN,-6.89661e-08,NaN,""
-1866.13,24.4773,19.9998,1.35367e-08,NaN,3.15762e-09,NaN,""
-1858.01,24.5238,19.9997,1.79633e-07,NaN,4.19018e-08,NaN,""
-1845.81,24.5237,19.9996,4.16022e-07,NaN,9.70426e-08,NaN,""
-1835.21,24.5235,19.9997,6.11634e-07,NaN,1.42672e-07,NaN,""
-1818.13,24.5285,19.9998,6.09021e-07,NaN,1.42062e-07,NaN,""
-1784.95,24.5581,19.9999,6.03947e-07,NaN,1.40879e-07,NaN,""
-1765.13,24.5267,20,6.00916e-07,NaN,1.40172e-07,NaN,""
-1754.59,24.5235,20.0001,6.26935e-07,NaN,1.46241e-07,NaN,""
-1724.28,24.5237,20.0002,7.10484e-07,NaN,1.6573e-07,NaN,""
-1684.58,24.5241,19.9997,8.19871e-07,NaN,1.91246e-07,NaN,""
-1680.45,24.5241,19.9997,8.31241e-07,NaN,1.93898e-07,NaN,""
-1652.05,24.5243,19.9999,4.96924e-07,NaN,1.15914e-07,NaN,""
-1636.81,24.5245,20,2.17298e-07,NaN,5.06876e-08,NaN,""
-1626.22,24.5246,19.9999,9.05067e-08,NaN,2.11119e-08,NaN,""
-1615.46,24.5247,19.9999,4.95552e-08,NaN,1.15594e-08,NaN,""
-1604.92,24.525,19.9998,-9.49843e-08,NaN,-2.21564e-08,NaN,""
-1592.65,24.5254,19.9998,-4.05463e-07,NaN,-9.45797e-08,NaN,""
-1580.37,24.5258,19.9999,-6.38889e-07,NaN,-1.49029e-07,NaN,""
-1552.76,24.5266,20.0001,-8.99489e-07,NaN,-2.09818e-07,NaN,""
-1538.47,24.5271,19.9998,-1.13283e-06,NaN,-2.64247e-07,NaN,""
-1524.18,24.5275,19.9996,-1.37809e-06,NaN,-3.21458e-07,NaN,""
-1505.44,24.5281,19.9995,-1.50346e-06,NaN,-3.50702e-07,NaN,""
-1485.83,24.5288,19.9994,-1.37513e-06,NaN,-3.20767e-07,NaN,""
-1470.77,24.5292,19.9997,-1.58234e-06,NaN,-3.69101e-07,NaN,""
-1461.94,24.5295,19.9999,-1.70381e-06,NaN,-3.97436e-07,NaN,""
-1446.88,24.53,19.9999,-1.70676e-06,NaN,-3.98124e-07,NaN,""
-1428.57,24.5306,19.9999,-1.5351e-06,NaN,-3.58081e-07,NaN,""
-1404.09,24.5313,19.9999,-1.5295e-06,NaN,-3.56775e-07,NaN,""
-1394.58,24.5316,19.9999,-1.41997e-06,NaN,-3.31226e-07,NaN,""
-1376.79,24.5233,20,-1.21508e-06,NaN,-2.83434e-07,NaN,""
-1359,24.515,20,-1.07006e-06,NaN,-2.49607e-07,NaN,""
-1316.1,24.4949,20.0001,-8.46074e-07,NaN,-1.97358e-07,NaN,""
-1316.07,24.4949,20.0001,-8.4543e-07,NaN,-1.97208e-07,NaN,""
-1300.75,24.5253,20.0001,-5.29716e-07,NaN,-1.23563e-07,NaN,""
-1293.04,24.4954,20.0001,-3.70822e-07,NaN,-8.64992e-08,NaN,""
-1286.59,24.4765,20.0001,-2.81459e-07,NaN,-6.5654e-08,NaN,""
-1248.22,24.5425,20,4.89374e-08,NaN,1.14153e-08,NaN,""
-1221.9,24.5344,19.9999,3.51171e-07,NaN,8.19152e-08,NaN,""
-1202.97,24.5286,19.9999,6.48675e-07,NaN,1.51312e-07,NaN,""
-1184.05,24.5355,20,7.89604e-07,NaN,1.84186e-07,NaN,""
-1161.28,24.5538,20,8.12121e-07,NaN,1.89438e-07,NaN,""
-1141.94,24.5693,19.9999,7.14009e-07,NaN,1.66552e-07,NaN,""
-1126.7,24.5487,19.9998,6.01926e-07,NaN,1.40407e-07,NaN,""
-1125.51,24.5455,19.9998,5.93181e-07,NaN,1.38367e-07,NaN,""
-1114.01,24.5148,19.9998,7.67817e-07,NaN,1.79104e-07,NaN,""
-1099.94,24.502,19.9997,7.88837e-07,NaN,1.84007e-07,NaN,""
-1077.4,24.5114,19.9997,8.22532e-07,NaN,1.91867e-07,NaN,""
-1054.86,24.5207,19.9998,7.71907e-07,NaN,1.80058e-07,NaN,""
-1023.81,24.5249,19.9999,6.32124e-07,NaN,1.47451e-07,NaN,""
-992.764,24.5194,20,6.59968e-07,NaN,1.53946e-07,NaN,""
-972.927,24.5159,19.9999,8.07147e-07,NaN,1.88278e-07,NaN,""
-946.98,24.5113,19.9998,4.12223e-07,NaN,9.61566e-08,NaN,""
-931.488,24.5188,19.9998,4.02497e-07,NaN,9.38878e-08,NaN,""
-902.647,24.5428,19.9999,5.87162e-07,NaN,1.36963e-07,NaN,""
-874.246,24.5664,19.9999,7.34865e-07,NaN,1.71417e-07,NaN,""
-850.94,24.5555,19.9999,7.48921e-07,NaN,1.74696e-07,NaN,""
-843.045,24.5518,19.9998,6.23984e-07,NaN,1.45553e-07,NaN,""
-819.416,24.5407,19.9995,9.44195e-07,NaN,2.20246e-07,NaN,""
-809.148,24.5392,19.9994,9.70088e-07,NaN,2.26286e-07,NaN,""
-804.756,24.5395,19.9994,9.81166e-07,NaN,2.2887e-07,NaN,""
-796.675,24.54,19.9996,9.41651e-07,NaN,2.19653e-07,NaN,""
-790.256,24.5404,19.9997,7.83472e-07,NaN,1.82755e-07,NaN,""
-782.175,24.5409,19.9998,8.9754e-07,NaN,2.09363e-07,NaN,""
-771.388,24.5416,19.9998,1.04982e-06,NaN,2.44885e-07,NaN,""
-745.056,24.5432,19.9998,1.05766e-06,NaN,2.46713e-07,NaN,""
-729.384,24.5442,19.9998,1.20166e-06,NaN,2.80304e-07,NaN,""
-715.039,24.5451,19.9998,1.31422e-06,NaN,3.0656e-07,NaN,""
-712.474,24.5453,19.9998,1.30055e-06,NaN,3.0337e-07,NaN,""
-693.506,24.6054,19.9997,1.19938e-06,NaN,2.79772e-07,NaN,""
-667.158,24.5533,19.9997,1.05887e-06,NaN,2.46995e-07,NaN,""
-651.504,24.5489,19.9996,9.26747e-07,NaN,2.16176e-07,NaN,""
-635.756,24.5569,19.9996,7.93836e-07,NaN,1.85173e-07,NaN,""
-618.08,24.5658,20.0001,6.44654e-07,NaN,1.50374e-07,NaN,""
-605.642,24.569,20.0003,5.39683e-07,NaN,1.25888e-07,NaN,""
-593.205,24.5675,20.0005,4.68721e-07,NaN,1.09335e-07,NaN,""
-560.781,24.5637,19.9999,7.29707e-07,NaN,1.70214e-07,NaN,""
-551.518,24.527,19.9998,8.04264e-07,NaN,1.87605e-07,NaN,""
-542.256,24.4903,19.9998,8.78821e-07,NaN,2.04997e-07,NaN,""
-524.261,24.519,19.9996,1.10799e-06,NaN,2.58453e-07,NaN,""
-506.267,24.5477,19.9996,1.3372e-06,NaN,3.1192e-07,NaN,""
-491.938,24.55,19.9998,1.35457e-06,NaN,3.15972e-07,NaN,""
-480.856,24.5518,19.9998,1.29914e-06,NaN,3.03041e-07,NaN,""
-469.774,24.5536,19.9996,1.43104e-06,NaN,3.33809e-07,NaN,""
-461.551,24.5549,19.9995,1.54079e-06,NaN,3.5941e-07,NaN,""
-456.11,24.5557,19.9995,1.55007e-06,NaN,3.61574e-07,NaN,""
-451.756,24.5564,19.9995,1.5575e-06,NaN,3.63307e-07,NaN,""
-450.756,24.5566,19.9995,1.4142e-05,NaN,3.29881e-06,NaN,""
-449.756,24.5568,19.9995,7.89289e-05,NaN,1.84112e-05,NaN,""
-427.158,24.5589,19.9998,NaN,NaN,NaN,NaN,""
-404.56,24.5482,20,NaN,NaN,NaN,NaN,""
-360.974,24.5275,20,NaN,NaN,NaN,NaN,""
-329.044,24.5402,19.9999,NaN,NaN,NaN,NaN,""
-296.404,24.5531,19.9997,NaN,NaN,NaN,NaN,""
-290.83,24.5549,19.9995,NaN,NaN,NaN,NaN,""
-285.256,24.5539,19.9992,NaN,NaN,NaN,NaN,""
-247.148,24.547,19.9997,NaN,NaN,NaN,NaN,""
-222.724,24.5426,20.0002,NaN,NaN,NaN,NaN,""
-188.931,24.5365,19.9997,NaN,NaN,NaN,NaN,""
-166.326,24.5325,19.9993,NaN,NaN,NaN,NaN,""
-163.549,24.532,19.9994,NaN,NaN,NaN,NaN,""
-139.769,24.4592,20,NaN,NaN,NaN,NaN,""
-124.609,24.4957,20,NaN,NaN,NaN,NaN,""
-108.193,24.6032,19.9999,NaN,NaN,NaN,NaN,""
-84.9235,24.5739,19.9999,NaN,NaN,NaN,NaN,""
-58.4743,24.6077,19.9999,NaN,NaN,NaN,NaN,""
-13.6315,24.5472,19.9998,NaN,NaN,NaN,NaN,""
26.5365,24.5895,19.9998,NaN,NaN,NaN,NaN,""
66.7045,24.6319,19.9997,NaN,NaN,NaN,NaN,""
105.416,24.6062,19.9997,NaN,NaN,NaN,NaN,""
127.494,24.6621,19.9998,NaN,NaN,NaN,NaN,""
149.573,24.7179,19.9998,NaN,NaN,NaN,NaN,""
170.903,24.6705,20,NaN,NaN,NaN,NaN,""
180.143,24.6499,20.0002,NaN,NaN,NaN,NaN,""
201.473,24.6207,20.0002,NaN,NaN,NaN,NaN,""
256.863,24.6067,20.0002,NaN,NaN,NaN,NaN,""
293.49,24.6017,20,NaN,NaN,NaN,NaN,""
336.099,24.5974,19.9998,NaN,NaN,NaN,NaN,""
338.229,24.5972,19.9998,NaN,NaN,NaN,NaN,""
353.244,24.6487,19.9998,NaN,NaN,NaN,NaN,""
359.463,24.5829,19.9998,NaN,NaN,NaN,NaN,""
391.471,24.5852,19.9998,NaN,NaN,NaN,NaN,""
439.744,24.5888,20.0004,NaN,NaN,NaN,NaN,""
462.967,24.5905,20.0001,NaN,NaN,NaN,NaN,""
484.682,24.5921,19.9995,NaN,NaN,NaN,NaN,""
581.305,24.5992,19.9998,NaN,NaN,NaN,NaN,""
581.862,24.5993,19.9998,NaN,NaN,NaN,NaN,""
680.326,24.5839,19.9998,NaN,NaN,NaN,NaN,""
696.482,24.6405,19.9998,NaN,NaN,NaN,NaN,""
705.441,24.6219,19.9997,NaN,NaN,NaN,NaN,""
722.041,24.5647,19.9995,NaN,NaN,NaN,NaN,""
731.557,24.6154,19.9994,NaN,NaN,NaN,NaN,""
742.545,24.5971,19.9994,NaN,NaN,NaN,NaN,""
753.534,24.5788,19.9995,NaN,NaN,NaN,NaN,""
768.088,24.6192,19.9996,NaN,NaN,NaN,NaN,""
796.802,24.6086,19.9999,NaN,NaN,NaN,NaN,""
840.846,24.5923,19.9999,NaN,NaN,NaN,NaN,""
889.29,24.5799,19.9998,NaN,NaN,NaN,NaN,""
936.425,24.5692,19.9997,NaN,NaN,NaN,NaN,""
986.615,24.6093,19.9997,NaN,NaN,NaN,NaN,""
1009.96,24.5985,19.9998,NaN,NaN,NaN,NaN,""
1033.3,24.5854,20,NaN,NaN,NaN,NaN,""
1058.63,24.575,19.9999,NaN,NaN,NaN,NaN,""
1095.25,24.5613,19.9997,NaN,NaN,NaN,NaN,""
1126.09,24.572,19.9998,NaN,NaN,NaN,NaN,""
1175.03,24.5963,19.9998,NaN,NaN,NaN,NaN,""
1227.13,24.5801,19.9998,NaN,NaN,NaN,NaN,""
1261.26,24.5696,19.9996,NaN,NaN,NaN,NaN,""
1292.88,24.5724,19.9994,NaN,NaN,NaN,NaN,""
1329.37,24.5757,20,NaN,NaN,NaN,NaN,""
1364.37,24.5791,19.9999,NaN,NaN,NaN,NaN,""
1399.38,24.5927,19.9998,NaN,NaN,NaN,NaN,""
1415.35,24.5989,19.9999,NaN,NaN,NaN,NaN,""
1421.9,24.6479,19.9999,NaN,NaN,NaN,NaN,""
1434.06,24.5837,20,NaN,NaN,NaN,NaN,""
1448.91,24.5854,20.0001,NaN,NaN,NaN,NaN,""
1463.01,24.5887,20,NaN,NaN,NaN,NaN,""
1480.32,24.6297,20,NaN,NaN,NaN,NaN,""
1504.99,24.6236,20,NaN,NaN,NaN,NaN,""
1546.24,24.6135,20.0002,NaN,NaN,NaN,NaN,""
1570.88,24.6155,19.9999,NaN,NaN,NaN,NaN,""
1590.14,24.617,19.9997,NaN,NaN,NaN,NaN,""
1637.03,24.6208,20.0001,NaN,NaN,NaN,NaN,""
1657.46,24.6034,20.0001,NaN,NaN,NaN,NaN,""
1677.89,24.5859,20,NaN,NaN,NaN,NaN,""
1707.77,24.5981,19.9999,NaN,NaN,NaN,NaN,""
1756.74,24.6181,20.0001,NaN,NaN,NaN,NaN,""
1788.02,24.6153,19.9999,NaN,NaN,NaN,NaN,""
1819.3,24.6126,19.9996,NaN,NaN,NaN,NaN,""
1832.84,24.5944,19.9996,NaN,NaN,NaN,NaN,""
1846.37,24.5762,19.9996,NaN,NaN,NaN,NaN,""
1866.65,24.6608,19.9997,NaN,NaN,NaN,NaN,""
1877.69,24.6333,19.9997,NaN,NaN,NaN,NaN,""
1888.74,24.6057,19.9997,NaN,NaN,NaN,NaN,""
1903.39,24.6005,19.9997,NaN,NaN,NaN,NaN,""
1934.13,24.5897,20.0001,NaN,NaN,NaN,NaN,""
1968.37,24.5886,20,NaN,NaN,NaN,NaN,""
1987.56,24.6007,19.9999,NaN,NaN,NaN,NaN,""
2019.56,24.5894,19.9998,NaN,NaN,NaN,NaN,""
2054.52,24.6316,19.9997,NaN,NaN,NaN,NaN,""
2071.75,24.5964,19.9997,NaN,NaN,NaN,NaN,""
2088.98,24.5612,19.9997,NaN,NaN,NaN,NaN,""
2109.73,24.6368,19.9997,NaN,NaN,NaN,NaN,""
2138.39,24.6167,19.9996,NaN,NaN,NaN,NaN,""
2163.53,24.5971,19.9996,NaN,NaN,NaN,NaN,""
2185.65,24.5798,20.0001,NaN,NaN,NaN,NaN,""
2193.2,24.6083,20.0002,NaN,NaN,NaN,NaN,""
2199.91,24.629,20.0001,NaN,NaN,NaN,NaN,""
2210.65,24.6094,19.9998,NaN,NaN,NaN,NaN,""
2233.81,24.5672,19.9998,NaN,NaN,NaN,NaN,""
2254.25,24.5749,19.9999,NaN,NaN,NaN,NaN,""
2293.41,24.5897,19.9997,NaN,NaN,NaN,NaN,""
2322.68,24.6008,19.9998,NaN,NaN,NaN,NaN,""
2349.54,24.6008,19.9998,NaN,NaN,NaN,NaN,""
2382.56,24.6007,19.9997,NaN,NaN,NaN,NaN,""
2411.2,24.6007,20.0002,NaN,NaN,NaN,NaN,""
2449.43,24.6006,19.9999,NaN,NaN,NaN,NaN,""
2503.99,24.6005,19.9998,NaN,NaN,NaN,NaN,""
2531.28,24.6361,19.9997,NaN,NaN,NaN,NaN,""
2549.06,24.6292,19.9996,NaN,NaN,NaN,NaN,""
2562.93,24.6238,19.9999,NaN,NaN,NaN,NaN,""
2608.88,24.6058,19.9998,NaN,NaN,NaN,NaN,""
2634.14,24.604,19.9998,NaN,NaN,NaN,NaN,""
2655.09,24.6025,19.9999,NaN,NaN,NaN,NaN,""
2692.24,24.5998,20.0006,NaN,NaN,NaN,NaN,""
2694.09,24.5997,20.0006,NaN,NaN,NaN,NaN,""
2720.74,24.5439,20.0001,NaN,NaN,NaN,NaN,""
2730.83,24.5787,20,NaN,NaN,NaN,NaN,""
2740.91,24.6135,20,NaN,NaN,NaN,NaN,""
2773.49,24.6105,20,NaN,NaN,NaN,NaN,""
2791.25,24.6088,19.9994,NaN,NaN,NaN,NaN,""
2815.56,24.6073,19.9996,NaN,NaN,NaN,NaN,""
2839.86,24.6102,19.9998,NaN,NaN,NaN,NaN,""
2885.24,24.6157,19.9996,NaN,NaN,NaN,NaN,""
2892.81,24.5499,19.9996,NaN,NaN,NaN,NaN,""
2924.02,24.582,19.9998,NaN,NaN,NaN,NaN,""
2941.9,24.6004,20,NaN,NaN,NaN,NaN,""
2961.65,24.6193,19.9998,NaN,NaN,NaN,NaN,""
2978.66,24.6331,19.9997,NaN,NaN,NaN,NaN,""
2989.24,24.6416,19.9999,NaN,NaN,NaN,NaN,""
2992.62,24.5652,19.9999,NaN,NaN,NaN,NaN,""
3003.14,24.5811,20,NaN,NaN,NaN,NaN,""
3023.42,24.6116,19.9998,NaN,NaN,NaN,NaN,""
3042.62,24.609,19.9997,NaN,NaN,NaN,NaN,""
3074.93,24.6046,19.9999,NaN,NaN,NaN,NaN,""
3085.7,24.6108,19.9997,NaN,NaN,NaN,NaN,""
3096.48,24.6181,19.9995,NaN,NaN,NaN,NaN,""
3115.17,24.6308,20,NaN,NaN,NaN,NaN,""
3145.18,24.6511,19.9999,NaN,NaN,NaN,NaN,""
3152.74,24.5928,19.9999,NaN,NaN,NaN,NaN,""
3173.42,24.6102,19.9996,NaN,NaN,NaN,NaN,""
3192.54,24.6263,19.9994,NaN,NaN,NaN,NaN,""
3215.52,24.6168,19.9996,NaN,NaN,NaN,NaN,""
3231,24.607,19.9997,NaN,NaN,NaN,NaN,""
3248.82,24.6407,19.9999,NaN,NaN,NaN,NaN,""
3261.81,24.6145,19.9999,NaN,NaN,NaN,NaN,""
3267.61,24.5811,19.9999,NaN,NaN,NaN,NaN,""
3280.44,24.6217,19.9999,NaN,NaN,NaN,NaN,""
3311.96,24.6005,19.9999,NaN,NaN,NaN,NaN,""
3324.1,24.6017,20.0003,NaN,NaN,NaN,NaN,""
3336.24,24.6083,20.0006,NaN,NaN,NaN,NaN,""
3363.3,24.6231,20.0002,NaN,NaN,NaN,NaN,""
3371.46,24.5623,20.0001,NaN,NaN,NaN,NaN,""
3375.93,24.5625,20.0001,NaN,NaN,NaN,NaN,""
3406,24.6113,20,NaN,NaN,NaN,NaN,""
3435.17,24.6122,19.9999,NaN,NaN,NaN,NaN,""
3456.97,24.6262,20,NaN,NaN,NaN,NaN,""
3475.74,24.6607,20,NaN,NaN,NaN,NaN,""
3482.56,24.5992,20,NaN,NaN,NaN,NaN,""
3494.11,24.6373,20.0001,NaN,NaN,NaN,NaN,""
3501.85,24.6536,20.0002,NaN,NaN,NaN,NaN,""
3517.04,24.6668,20.0004,NaN,NaN,NaN,NaN,""
3541.64,24.6881,19.9998,NaN,NaN,NaN,NaN,""
3563.14,24.7068,19.9999,NaN,NaN,NaN,NaN,""
3580.17,24.6998,20.0001,NaN,NaN,NaN,NaN,""
3606.18,24.6891,20.0001,NaN,NaN,NaN,NaN,""
3614.24,24.584,20.0002,NaN,NaN,NaN,NaN,""
3625.45,24.6139,20,NaN,NaN,NaN,NaN,""
3636.65,24.6438,19.9998,NaN,NaN,NaN,NaN,""
3653.22,24.6387,19.9996,NaN,NaN,NaN,NaN,""
3677.86,24.631,19.9998,NaN,NaN,NaN,NaN,""
3698.24,24.6246,20.0004,NaN,NaN,NaN,NaN,""
3713.36,24.634,20.0004,NaN,NaN,NaN,NaN,""
3728.47,24.6476,20.0004,NaN,NaN,NaN,NaN,""
3751.87,24.6687,20.0001,NaN,NaN,NaN,NaN,""
3774.56,24.6581,19.9999,NaN,NaN,NaN,NaN,""
3796.24,24.648,20,NaN,NaN,NaN,NaN,""
3820.5,24.6482,19.9999,NaN,NaN,NaN,NaN,""
3844.76,24.6565,19.9998,NaN,NaN,NaN,NaN,""
3897.6,24.6746,19.9999,NaN,NaN,NaN,NaN,""
3909.48,24.6461,20.0001,NaN,NaN,NaN,NaN,""
3921.37,24.6176,20.0003,NaN,NaN,NaN,NaN,""
3929.72,24.6463,20.0004,NaN,NaN,NaN,NaN,""
3938.08,24.675,20.0003,NaN,NaN,NaN,NaN,""
3979.03,24.6533,19.9999,NaN,NaN,NaN,NaN,""
3998.59,24.6506,20,NaN,NaN,NaN,NaN,""
4018.14,24.658,20.0001,NaN,NaN,NaN,NaN,""
4039.01,24.666,19.9996,NaN,NaN,NaN,NaN,""
4055.35,24.6463,19.9992,NaN,NaN,NaN,NaN,""
4071.69,24.6266,19.9996,NaN,NaN,NaN,NaN,""
4093.99,24.6266,20.0001,NaN,NaN,NaN,NaN,""
4231.32,24.6266,19.9998,NaN,NaN,NaN,NaN,""
4324.13,24.6253,19.9998,NaN,NaN,NaN,NaN,""
4416.94,24.6229,19.9997,NaN,NaN,NaN,NaN,""
4470.13,24.6215,19.9999,NaN,NaN,NaN,NaN,""
4509.99,24.6205,20.0005,NaN,NaN,NaN,NaN,""
4540.67,24.6197,20,NaN,NaN,NaN,NaN,""
4572.24,24.6189,19.9992,NaN,NaN,NaN,NaN,""
4593.65,24.6183,19.9995,NaN,NaN,NaN,NaN,""
4612.45,24.6329,19.9996,NaN,NaN,NaN,NaN,""
4654.02,24.6653,20,NaN,NaN,NaN,NaN,""
4673.49,24.6804,19.9997,NaN,NaN,NaN,NaN,""
4680.09,24.6222,19.9996,NaN,NaN,NaN,NaN,""
4694.7,24.6151,19.9997,NaN,NaN,NaN,NaN,""
4709.31,24.608,19.9998,NaN,NaN,NaN,NaN,""
4722.54,24.6802,19.9999,NaN,NaN,NaN,NaN,""
4729.42,24.6601,19.9999,NaN,NaN,NaN,NaN,""
4737.32,24.6315,19.9998,NaN,NaN,NaN,NaN,""
4755.3,24.632,19.9995,NaN,NaN,NaN,NaN,""
4783.05,24.6327,19.9999,NaN,NaN,NaN,NaN,""
4800.67,24.6323,19.9999,NaN,NaN,NaN,NaN,""
4818.29,24.6298,19.9998,NaN,NaN,NaN,NaN,""
4857.61,24.6244,19.9998,NaN,NaN,NaN,NaN,""
4876.55,24.6427,19.9998,NaN,NaN,NaN,NaN,""
4895.48,24.6611,20,NaN,NaN,NaN,NaN,""
4913.38,24.6479,20,NaN,NaN,NaN,NaN,""
4926.79,24.638,19.9998,NaN,NaN,NaN,NaN,""
4949.46,24.6214,19.9994,NaN,NaN,NaN,NaN,""
4961.56,24.6447,19.9997,NaN,NaN,NaN,NaN,""
4973.8,24.6683,20,NaN,NaN,NaN,NaN,""
4988.48,24.6698,19.9999,NaN,NaN,NaN,NaN,""
5006.81,24.6541,19.9998,NaN,NaN,NaN,NaN,""
5047.24,24.6195,20,NaN,NaN,NaN,NaN,""
5048.53,24.6184,19.9999,NaN,NaN,NaN,NaN,""
5070.72,24.6586,19.9996,NaN,NaN,NaN,NaN,""
5076.97,24.6253,19.9995,NaN,NaN,NaN,NaN,""
5083.21,24.592,19.9995,NaN,NaN,NaN,NaN,""
5107.62,24.6093,19.9994,NaN,NaN,NaN,NaN,""
5121.91,24.6194,19.9999,NaN,NaN,NaN,NaN,""
5144.54,24.6354,19.9999,NaN,NaN,NaN,NaN,""
5162.95,24.6359,19.9999,NaN,NaN,NaN,NaN,""
5200.87,24.6369,20.0002,NaN,NaN,NaN,NaN,""
5223.56,24.6375,20,NaN,NaN,NaN,NaN,""
5235.24,24.6378,19.9995,NaN,NaN,NaN,NaN,""
5261.82,24.6385,20,NaN,NaN,NaN,NaN,""
5270.47,24.6564,20.0001,NaN,NaN,NaN,NaN,""
5279.12,24.6744,20.0001,NaN,NaN,NaN,NaN,""
5320.63,24.6307,19.9997,NaN,NaN,NaN,NaN,""
5353.33,24.6279,19.9997,NaN,NaN,NaN,NaN,""
5397.96,24.6239,20,NaN,NaN,NaN,NaN,""
5410.57,24.5953,20,NaN,NaN,NaN,NaN,""
5418.99,24.5908,20,NaN,NaN,NaN,NaN,""
5454.28,24.6335,20.0001,NaN,NaN,NaN,NaN,""
5489.33,24.6383,19.9999,NaN,NaN,NaN,NaN,""
[...]
151108,24.4808,19.9998,0.00274837,898.126,0.000641093,209.5,""
152641,24.3875,19.9997,0.0026927,902.295,0.000628108,210.472,""
154683,24.4428,20,0.00262179,907.721,0.000611568,211.738,""
156744,24.4849,19.9998,0.00255618,913.057,0.000596263,212.983,""
159101,24.4162,19.9999,0.00248533,918.996,0.000579736,214.368,""
161044,24.4333,19.9998,0.00243168,923.772,0.000567221,215.482,""
162870,24.3872,19.9999,0.00238651,928.168,0.000556686,216.508,""
165261,24.3587,20,0.00232846,933.801,0.000543145,217.822,""
167986,24.4145,19.9999,0.00226834,940.062,0.000529122,219.282,""
170219,24.3419,20.0001,0.00222379,945.076,0.000518729,220.452,""
172080,24.3738,20,0.0021894,949.183,0.000510707,221.41,""
174108,24.3658,20.0001,0.00215362,953.586,0.000502361,222.437,""
176109,24.3663,20.0002,0.00212116,957.862,0.000494789,223.434,""
178677,24.3212,20.0001,0.00208328,963.259,0.000485953,224.693,""
180966,24.3571,19.9998,0.00205148,967.991,0.000478536,225.797,""
182902,24.348,19.9998,0.00202673,971.939,0.000472761,226.718,""
185370,24.3835,19.9999,0.00199499,976.902,0.000465359,227.875,""
187854,24.3718,19.9997,0.00196697,981.822,0.000458821,229.023,""
190530,24.3892,20,0.00193715,987.045,0.000451866,230.241,""
193137,24.417,19.9997,0.00190993,992.06,0.000445516,231.411,""
194850,24.3958,19.9999,0.00189357,995.318,0.0004417,232.171,""
196983,24.3966,20,0.00187217,999.333,0.00043671,233.108,""
199260,24.3972,20,0.00185113,1003.57,0.000431801,234.097,""
201798,24.3862,19.9998,0.00182854,1008.24,0.000426531,235.186,""
203911,24.4093,19.9997,0.00180987,1012.09,0.000422176,236.082,""
206146,24.4183,20.0002,0.00179128,1016.11,0.00041784,237.021,""
208299,24.4136,20,0.00177352,1019.95,0.000413697,237.916,""
210210,24.4123,20.0001,0.00175755,1023.32,0.000409972,238.704,""
212200,24.3939,19.9998,0.00174151,1026.8,0.00040623,239.516,""
214287,24.4092,20,0.00172496,1030.42,0.000402371,240.36,""
216344,24.3647,19.9998,0.00170829,1033.95,0.00039848,241.183,""
218325,24.3509,20,0.00169324,1037.32,0.000394972,241.969,""
220395,24.3575,19.9997,0.0016768,1040.81,0.000391136,242.783,""
222838,24.3894,19.9997,0.00165784,1044.88,0.000386712,243.733,""
225138,24.3463,19.9996,0.00163954,1048.67,0.000382445,244.617,""
227252,24.3685,19.9999,0.00162366,1052.12,0.000378741,245.422,""
229550,24.3603,19.9995,0.0016055,1055.83,0.000374504,246.287,""
231660,24.3497,20.0001,0.00158966,1059.2,0.000370809,247.074,""
233693,24.34,19.9997,0.00157356,1062.42,0.000367054,247.823,""
235854,24.3335,19.9999,0.00155704,1065.8,0.0003632,248.612,""
237972,24.3164,19.9996,0.00154059,1069.08,0.000359363,249.377,""
239861,24.3022,19.9995,0.00152611,1071.98,0.000355985,250.053,""
242073,24.3099,19.9996,0.0015101,1075.34,0.000352252,250.837,""
244343,24.3529,20.0001,0.00149312,1078.74,0.00034829,251.632,""
246408,24.3052,19.9999,0.00147798,1081.81,0.000344759,252.347,""
248609,24.33,20,0.00146163,1085.05,0.000340946,253.102,""
250550,24.2841,19.9996,0.00144691,1087.87,0.000337512,253.76,""
252966,24.2938,19.9996,0.0014293,1091.34,0.000333404,254.571,""
255062,24.2963,19.9998,0.00141389,1094.32,0.000329808,255.266,""
257369,24.3582,20.0001,0.00139739,1097.57,0.00032596,256.022,""
259546,24.3411,20.0003,0.00138164,1100.59,0.000322286,256.728,""
261596,24.3727,20,0.00136712,1103.41,0.0003189,257.385,""
263582,24.5351,19.9999,0.00135345,1106.11,0.000315711,258.015,""
265504,24.451,19.9997,0.00133926,1108.7,0.000312399,258.619,""
267610,24.4923,19.9999,0.0013252,1111.5,0.00030912,259.273,""
269978,24.4334,20,0.00130842,1114.62,0.000305206,260.001,""
272238,24.4523,19.9994,0.00129222,1117.56,0.000301428,260.686,""
274470,24.462,19.9997,0.00127719,1120.43,0.000297922,261.355,""
276982,24.4372,20.0002,0.00125997,1123.61,0.000293906,262.098,""
279125,24.4034,19.9996,0.00124484,1126.3,0.000290374,262.724,""
281113,24.6794,20.0003,0.00123183,1128.76,0.000287341,263.298,""
283276,24.7144,19.9998,0.00121783,1131.41,0.000284075,263.916,""
285549,24.7626,19.9998,0.0012029,1134.16,0.000280592,264.558,""
287691,24.7424,19.9996,0.00118882,1136.72,0.000277307,265.156,""
289940,24.7498,19.9997,0.00117443,1139.38,0.000273952,265.775,""
292282,24.7108,19.9997,0.00115955,1142.11,0.000270481,266.413,""
294068,24.646,19.9999,0.00114716,1144.17,0.00026759,266.893,""
294069,24.6461,19.9999,NaN,NaN,NaN,NaN,"Ampoule removed"
294116,24.6506,19.9997,NaN,NaN,NaN,NaN,""
294140,24.6528,19.9994,NaN,NaN,NaN,NaN,""
294156,24.6004,19.9992,NaN,NaN,NaN,NaN,""
294163,24.6182,19.9992,NaN,NaN,NaN,NaN,""
294178,24.6573,19.9995,NaN,NaN,NaN,NaN,""
294189,24.6532,19.9997,NaN,NaN,NaN,NaN,""
294221,24.6403,19.9999,NaN,NaN,NaN,NaN,""
294228,24.6376,20,NaN,NaN,NaN,NaN,""
294245,24.7008,20.0003,NaN,NaN,NaN,NaN,""
294256,24.6816,20.0002,NaN,NaN,NaN,NaN,""
294271,24.6585,20,NaN,NaN,NaN,NaN,""
294285,24.6719,20,NaN,NaN,NaN,NaN,""
294301,24.6969,19.9999,NaN,NaN,NaN,NaN,""
294324,24.6229,19.9999,NaN,NaN,NaN,NaN,""
294336,24.7069,19.9999,NaN,NaN,NaN,NaN,""
294352,24.6505,19.9998,NaN,NaN,NaN,NaN,""
294380,24.6669,19.9998,NaN,NaN,NaN,NaN,""
294390,24.6478,19.9998,NaN,NaN,NaN,NaN,""
294400,24.6288,19.9998,NaN,NaN,NaN,NaN,""
294423,24.6513,19.9997,NaN,NaN,NaN,NaN,""
294484,24.6263,19.9996,NaN,NaN,NaN,NaN,""
294490,24.639,19.9996,NaN,NaN,NaN,NaN,""
294502,24.6638,19.9998,NaN,NaN,NaN,NaN,""
294526,24.6445,20.0003,NaN,NaN,NaN,NaN,""
294538,24.6739,20.0002,NaN,NaN,NaN,NaN,""
294550,24.7032,20.0002,NaN,NaN,NaN,NaN,""
294562,24.6423,20.0001,NaN,NaN,NaN,NaN,""
294577,24.6779,20,NaN,NaN,NaN,NaN,""
294612,24.6777,19.9998,NaN,NaN,NaN,NaN,""
294635,24.6775,19.9996,NaN,NaN,NaN,NaN,""
294661,24.6705,20,NaN,NaN,NaN,NaN,""
294687,24.6403,20.0004,NaN,NaN,NaN,NaN,""
294713,24.6229,20,NaN,NaN,NaN,NaN,""
294739,24.6489,19.9996,NaN,NaN,NaN,NaN,""
294766,24.6445,19.9993,NaN,NaN,NaN,NaN,""
294781,24.642,19.9997,NaN,NaN,NaN,NaN,""
294787,24.6409,19.9999,NaN,NaN,NaN,NaN,""
294803,24.6383,20.0003,NaN,NaN,NaN,NaN,""
294839,24.6366,20.0001,NaN,NaN,NaN,NaN,""
294875,24.6509,19.9999,NaN,NaN,NaN,NaN,""
294881,24.6535,19.9999,NaN,NaN,NaN,NaN,""
294889,24.6114,19.9999,NaN,NaN,NaN,NaN,""
294928,24.6479,20,NaN,NaN,NaN,NaN,""
294950,24.6631,19.9997,NaN,NaN,NaN,NaN,""
294972,24.6709,19.9995,NaN,NaN,NaN,NaN,""
294987,24.6655,19.9996,NaN,NaN,NaN,NaN,""
294999,24.6129,19.9998,NaN,NaN,NaN,NaN,""
295014,24.6304,19.9998,NaN,NaN,NaN,NaN,""
295035,24.6553,19.9998,NaN,NaN,NaN,NaN,""
295063,24.6587,19.9997,NaN,NaN,NaN,NaN,""
295089,24.6606,19.9997,NaN,NaN,NaN,NaN,""
295129,24.6263,19.9997,NaN,NaN,NaN,NaN,""
295151,24.6299,20,NaN,NaN,NaN,NaN,""
295188,24.6409,20.0005,NaN,NaN,NaN,NaN,""
295197,24.6433,20.0003,NaN,NaN,NaN,NaN,""
295215,24.6967,20,NaN,NaN,NaN,NaN,""
295230,24.6367,19.9998,NaN,NaN,NaN,NaN,""
295246,24.6371,19.9997,NaN,NaN,NaN,NaN,""
295261,24.6375,19.9997,NaN,NaN,NaN,NaN,""
295286,24.6828,19.9997,NaN,NaN,NaN,NaN,""
295308,24.6378,19.9998,NaN,NaN,NaN,NaN,""
295329,24.6293,19.9998,NaN,NaN,NaN,NaN,""
295351,24.6208,19.9998,NaN,NaN,NaN,NaN,""
295382,24.6643,19.9999,NaN,NaN,NaN,NaN,""
295420,24.613,19.9999,NaN,NaN,NaN,NaN,""
295446,24.6519,19.9999,NaN,NaN,NaN,NaN,""
295483,24.6309,20,NaN,NaN,NaN,NaN,""
295507,24.6398,20,NaN,NaN,NaN,NaN,""
295539,24.6518,19.9995,NaN,NaN,NaN,NaN,""
295560,24.6576,19.9997,NaN,NaN,NaN,NaN,""
295580,24.6464,19.9999,NaN,NaN,NaN,NaN,""
295612,24.629,20.0001,NaN,NaN,NaN,NaN,""
295615,24.6273,20.0001,NaN,NaN,NaN,NaN,""
295632,24.6598,19.9997,NaN,NaN,NaN,NaN,""
295647,24.649,19.9997,NaN,NaN,NaN,NaN,""
295660,24.6387,20,NaN,NaN,NaN,NaN,""
295679,24.625,20.0002,NaN,NaN,NaN,NaN,""
295691,24.6257,20.0002,NaN,NaN,NaN,NaN,""
295737,24.6284,20,NaN,NaN,NaN,NaN,""
295761,24.6673,19.9999,NaN,NaN,NaN,NaN,""
295776,24.6291,19.9998,NaN,NaN,NaN,NaN,""
295791,24.5908,19.9997,NaN,NaN,NaN,NaN,""
295803,24.6462,19.9996,NaN,NaN,NaN,NaN,""
295832,24.649,19.9997,NaN,NaN,NaN,NaN,""
295844,24.6502,20,NaN,NaN,NaN,NaN,""
295876,24.6497,20,NaN,NaN,NaN,NaN,""
295930,24.6328,19.9999,NaN,NaN,NaN,NaN,""
295981,24.6582,19.9999,NaN,NaN,NaN,NaN,""
295999,24.8283,19.9999,NaN,NaN,NaN,NaN,""
296000,24.8228,19.9999,NaN,NaN,NaN,NaN,""
296026,24.7075,20,NaN,NaN,NaN,NaN,""
296067,24.6608,20.0001,NaN,NaN,NaN,NaN,""
296089,24.6053,19.9999,NaN,NaN,NaN,NaN,""
296104,24.6069,19.9998,NaN,NaN,NaN,NaN,""
296110,24.6495,19.9997,NaN,NaN,NaN,NaN,""
296117,24.6526,19.9997,NaN,NaN,NaN,NaN,""
296132,24.6213,19.9998,NaN,NaN,NaN,NaN,""
296183,24.6788,19.9998,NaN,NaN,NaN,NaN,""
296204,24.6529,19.9998,NaN,NaN,NaN,NaN,""
296210,24.6895,19.9999,NaN,NaN,NaN,NaN,""
296216,24.7262,19.9999,NaN,NaN,NaN,NaN,""
296226,24.6584,20,NaN,NaN,NaN,NaN,""
296257,24.6769,20.0003,NaN,NaN,NaN,NaN,""
296286,24.6891,19.9998,NaN,NaN,NaN,NaN,""
296308,24.6567,19.9995,NaN,NaN,NaN,NaN,""