File: TAInstCalorimetry/DATA/myexp11.csv
Summary
,Component - OPC
Mass,4g
Name,"OPC"
ID,"Bernburg CEM I 42.5R 29.09.21"

"Time","Temperature [AmbientT(Therm3T)]","Temperature [Temperature]","Heat flow [Signal]","Heat [Signal]","Normalized heat flow [Signal]","Normalized heat [Signal]","Time markers"
-1932.35,24.5504,19.9995,1.70161e-06,NaN,4.25402e-07,NaN,""
-1914.77,24.5408,19.9999,1.72828e-06,NaN,4.3207e-07,NaN,""
-1904.26,24.5372,19.9999,1.74424e-06,NaN,4.36059e-07,NaN,""
-1886.75,24.533,19.9999,1.71792e-06,NaN,4.2948e-07,NaN,""
-1868.6,24.5465,20,1.65473e-06,NaN,4.13684e-07,NaN,""
-1855.53,24.5797,20,1.56561e-06,NaN,3.91402e-07,NaN,""
-1842.46,24.5748,20,1.36705e-06,NaN,3.41763e-07,NaN,""
-1833.49,24.5443,19.9999,1.23076e-06,NaN,3.07691e-07,NaN,""
-1814.3,24.5503,19.9999,9.53671e-07,NaN,2.38418e-07,NaN,""
-1792.12,24.5572,19.9998,6.65281e-07,NaN,1.6632e-07,NaN,""
-1769.94,24.5641,19.9999,4.12446e-07,NaN,1.03111e-07,NaN,""
-1741.77,24.5697,20.0001,1.98406e-07,NaN,4.96016e-08,NaN,""
-1713.6,24.5738,20.0001,-1.56332e-08,NaN,-3.90831e-09,NaN,""
-1678.38,24.579,20,6.52493e-08,NaN,1.63123e-08,NaN,""
-1677.59,24.5791,20,6.8366e-08,NaN,1.70915e-08,NaN,""
-1662.55,24.5676,20,-1.04765e-08,NaN,-2.61912e-09,NaN,""
-1646.56,24.5555,20.0003,-9.42831e-08,NaN,-2.35708e-08,NaN,""
-1637.02,24.5606,20.0003,-3.34635e-08,NaN,-8.36587e-09,NaN,""
-1625.85,24.5871,20.0002,3.77667e-08,NaN,9.44168e-09,NaN,""
-1598.6,24.5601,20.0001,2.11471e-07,NaN,5.28678e-08,NaN,""
-1582.88,24.5698,20,5.69379e-09,NaN,1.42345e-09,NaN,""
-1566.98,24.589,20,-2.02281e-07,NaN,-5.05704e-08,NaN,""
-1566.22,24.5899,20,-2.1221e-07,NaN,-5.30524e-08,NaN,""
-1557.57,24.5252,19.9999,-3.25471e-07,NaN,-8.13677e-08,NaN,""
-1539.76,24.5517,19.9999,-2.6052e-07,NaN,-6.51299e-08,NaN,""
-1526.71,24.5711,19.9999,-2.95959e-07,NaN,-7.39897e-08,NaN,""
-1518.61,24.5773,19.9999,-4.41959e-07,NaN,-1.1049e-07,NaN,""
-1510.5,24.5751,19.9999,-5.29842e-07,NaN,-1.3246e-07,NaN,""
-1497.18,24.5716,19.9999,-5.80835e-07,NaN,-1.45209e-07,NaN,""
-1472.86,24.5651,19.9998,-8.53325e-07,NaN,-2.13331e-07,NaN,""
-1458.24,24.5619,19.9999,-6.87972e-07,NaN,-1.71993e-07,NaN,""
-1442.86,24.5601,19.9999,-3.37837e-07,NaN,-8.44592e-08,NaN,""
-1413.66,24.5568,20.0001,-2.4576e-07,NaN,-6.14399e-08,NaN,""
-1376.15,24.5525,20.0002,-1.27457e-07,NaN,-3.18644e-08,NaN,""
-1356.52,24.5649,19.9999,8.54296e-08,NaN,2.13574e-08,NaN,""
-1342.73,24.5795,19.9997,2.34916e-07,NaN,5.8729e-08,NaN,""
-1319.25,24.5994,19.9996,4.80929e-07,NaN,1.20232e-07,NaN,""
-1285.92,24.5753,19.9996,3.48832e-07,NaN,8.7208e-08,NaN,""
-1280.13,24.6006,19.9997,3.25891e-07,NaN,8.14726e-08,NaN,""
-1274.35,24.6259,19.9998,3.02949e-07,NaN,7.57373e-08,NaN,""
-1258.45,24.5947,20,4.02868e-07,NaN,1.00717e-07,NaN,""
-1245.78,24.5699,20.0002,5.71342e-07,NaN,1.42836e-07,NaN,""
-1235.18,24.5652,20.0003,5.50469e-07,NaN,1.37617e-07,NaN,""
-1224.58,24.5676,20.0003,5.29596e-07,NaN,1.32399e-07,NaN,""
-1206.73,24.5717,20.0004,6.32603e-07,NaN,1.58151e-07,NaN,""
-1196.1,24.5741,20.0001,6.36587e-07,NaN,1.59147e-07,NaN,""
-1187.6,24.576,19.9999,5.41562e-07,NaN,1.35391e-07,NaN,""
-1179.21,24.5779,19.9999,6.23722e-07,NaN,1.55931e-07,NaN,""
-1170.81,24.5798,19.9999,7.05882e-07,NaN,1.7647e-07,NaN,""
-1153.41,24.5819,19.9999,5.25534e-07,NaN,1.31383e-07,NaN,""
-1136.02,24.5651,20,3.45185e-07,NaN,8.62964e-08,NaN,""
-1117.89,24.5498,20,1.90836e-07,NaN,4.77089e-08,NaN,""
-1092.04,24.5905,20,-2.9341e-08,NaN,-7.33525e-09,NaN,""
-1076.23,24.5859,20,-1.63903e-07,NaN,-4.09759e-08,NaN,""
-1074.17,24.5836,19.9999,-1.81438e-07,NaN,-4.53595e-08,NaN,""
-1056.33,24.5634,19.9999,1.79013e-07,NaN,4.47532e-08,NaN,""
-1033.93,24.5679,19.9998,2.61116e-08,NaN,6.5279e-09,NaN,""
-1026.22,24.5945,19.9997,-2.6544e-08,NaN,-6.636e-09,NaN,""
-1003.81,24.5933,19.9999,-1.15302e-07,NaN,-2.88256e-08,NaN,""
-975.263,24.5918,20,-7.27912e-08,NaN,-1.81978e-08,NaN,""
-952.609,24.5935,20.0002,-1.98802e-07,NaN,-4.97006e-08,NaN,""
-934.589,24.5948,20.0001,-3.83448e-07,NaN,-9.5862e-08,NaN,""
-916.568,24.5961,19.9999,-6.02732e-07,NaN,-1.50683e-07,NaN,""
-909.94,24.5966,19.9999,-6.87515e-07,NaN,-1.71879e-07,NaN,""
-906.299,24.6177,19.9998,-7.34083e-07,NaN,-1.83521e-07,NaN,""
-902.823,24.6341,19.9998,-7.21712e-07,NaN,-1.80428e-07,NaN,""
-900.003,24.5864,19.9998,-7.11676e-07,NaN,-1.77919e-07,NaN,""
-897.182,24.5419,19.9998,-7.0164e-07,NaN,-1.7541e-07,NaN,""
-882.507,24.5789,19.9999,-6.49418e-07,NaN,-1.62355e-07,NaN,""
-865.209,24.5791,20.0001,-5.87866e-07,NaN,-1.46966e-07,NaN,""
-853.059,24.5792,20.0001,-3.99495e-07,NaN,-9.98738e-08,NaN,""
-840.909,24.5531,20,-2.11124e-07,NaN,-5.27811e-08,NaN,""
-830.846,24.5172,19.9999,-1.22872e-07,NaN,-3.0718e-08,NaN,""
-820.889,24.5436,19.9998,-3.82206e-08,NaN,-9.55515e-09,NaN,""
-809.819,24.573,19.9997,-2.21978e-07,NaN,-5.54946e-08,NaN,""
-798.823,24.5731,19.9996,-4.00696e-07,NaN,-1.00174e-07,NaN,""
-781.176,24.5732,19.9997,-3.19672e-07,NaN,-7.99181e-08,NaN,""
-763.529,24.5827,19.9999,-2.40582e-07,NaN,-6.01454e-08,NaN,""
-745.135,24.6081,20,-3.5404e-07,NaN,-8.851e-08,NaN,""
-725.565,24.6352,20,-4.74748e-07,NaN,-1.18687e-07,NaN,""
-721.495,24.6089,20,-4.99854e-07,NaN,-1.24964e-07,NaN,""
-717.424,24.5825,19.9999,-5.24961e-07,NaN,-1.3124e-07,NaN,""
-704.704,24.5709,19.9997,-5.81271e-07,NaN,-1.45318e-07,NaN,""
-691.983,24.5593,19.9996,-3.98837e-07,NaN,-9.97092e-08,NaN,""
-673.691,24.555,19.9996,-1.36501e-07,NaN,-3.41252e-08,NaN,""
-650.766,24.574,19.9998,7.84255e-08,NaN,1.96064e-08,NaN,""
-628.753,24.5922,19.9999,1.20762e-07,NaN,3.01904e-08,NaN,""
-618.096,24.601,19.9999,-9.99454e-08,NaN,-2.49863e-08,NaN,""
-607.44,24.5893,19.9999,-3.20652e-07,NaN,-8.01631e-08,NaN,""
-590.753,24.5709,19.9999,-1.77405e-07,NaN,-4.43513e-08,NaN,""
-570.695,24.5548,19.9999,-3.49875e-07,NaN,-8.74688e-08,NaN,""
-550.638,24.5699,19.9999,-5.22345e-07,NaN,-1.30586e-07,NaN,""
-534.603,24.582,19.9999,-3.03159e-07,NaN,-7.57898e-08,NaN,""
-519.957,24.5931,19.9997,-1.25574e-07,NaN,-3.13934e-08,NaN,""
-500.417,24.6078,19.9995,-1.76544e-07,NaN,-4.4136e-08,NaN,""
-497.967,24.6096,19.9995,-9.88532e-08,NaN,-2.47133e-08,NaN,""
-487.846,24.5796,19.9994,2.22194e-07,NaN,5.55484e-08,NaN,""
-481.698,24.5614,19.9996,3.21163e-07,NaN,8.02908e-08,NaN,""
-475.549,24.5639,19.9998,3.77985e-07,NaN,9.44961e-08,NaN,""
-465.66,24.5718,19.9998,4.595e-07,NaN,1.14875e-07,NaN,""
-443.721,24.5894,19.9999,2.5497e-07,NaN,6.37424e-08,NaN,""
-427.756,24.6007,19.9997,1.37966e-07,NaN,3.44915e-08,NaN,""
-411.79,24.5745,19.9996,1.81875e-07,NaN,4.54688e-08,NaN,""
-401.267,24.5967,19.9997,-2.97631e-08,NaN,-7.44078e-09,NaN,""
-396.314,24.6496,19.9998,-6.47938e-08,NaN,-1.61984e-08,NaN,""
-390.673,24.675,19.9999,-3.89281e-08,NaN,-9.73203e-09,NaN,""
-382.351,24.6488,20,-1.07027e-08,NaN,-2.67568e-09,NaN,""
-373.298,24.6202,20,-1.71426e-07,NaN,-4.28564e-08,NaN,""
-364.245,24.6007,19.9999,-3.19077e-07,NaN,-7.97694e-08,NaN,""
-345.971,24.6271,19.9998,-1.06526e-07,NaN,-2.66316e-08,NaN,""
-336.549,24.6333,19.9998,-2.20469e-07,NaN,-5.51174e-08,NaN,""
-318.784,24.5973,19.9999,-4.40984e-07,NaN,-1.10246e-07,NaN,""
-313.147,24.5976,19.9998,-5.1095e-07,NaN,-1.27737e-07,NaN,""
-307.51,24.5992,19.9997,-6.27418e-07,NaN,-1.56855e-07,NaN,""
-288.409,24.6048,19.9997,-1.14948e-06,NaN,-2.8737e-07,NaN,""
-263.354,24.6121,19.9998,-1.11757e-06,NaN,-2.79392e-07,NaN,""
-241.796,24.6185,20,-9.1532e-07,NaN,-2.2883e-07,NaN,""
-220.238,24.6199,20.0002,-7.13073e-07,NaN,-1.78268e-07,NaN,""
-196.956,24.6095,20.0004,-8.45399e-07,NaN,-2.1135e-07,NaN,""
-180.474,24.6021,20.0002,-6.98604e-07,NaN,-1.74651e-07,NaN,""
-167.018,24.5974,20.0001,-5.78758e-07,NaN,-1.44689e-07,NaN,""
-153.562,24.6144,19.9996,-3.94633e-07,NaN,-9.86583e-08,NaN,""
-146.335,24.6236,19.9996,-2.85735e-07,NaN,-7.14337e-08,NaN,""
-134.346,24.6387,19.9996,-1.05073e-07,NaN,-2.62683e-08,NaN,""
-133.346,24.64,19.9996,1.80167e-05,NaN,4.50418e-06,NaN,""
-127.221,24.6477,19.9997,NaN,NaN,NaN,NaN,""
-122.971,24.5808,19.9997,NaN,NaN,NaN,NaN,""
-111.294,24.5854,19.9998,NaN,NaN,NaN,NaN,""
-99.6159,24.5899,20,NaN,NaN,NaN,NaN,""
-86.0436,24.6135,20.0002,NaN,NaN,NaN,NaN,""
-72.4714,24.6371,20.0002,NaN,NaN,NaN,NaN,""
-63.28,24.5903,20.0001,NaN,NaN,NaN,NaN,""
-54.1306,24.5438,20,NaN,NaN,NaN,NaN,""
-42.4401,24.5305,19.9998,NaN,NaN,NaN,NaN,""
-33.6403,24.4944,19.9998,NaN,NaN,NaN,NaN,""
-23.3464,24.3912,19.9998,NaN,NaN,NaN,NaN,""
-12.5651,24.5164,19.9999,NaN,NaN,NaN,NaN,""
1.5716,24.6315,19.9999,NaN,NaN,NaN,NaN,""
9.18097,24.6215,20,NaN,NaN,NaN,NaN,""
22.0013,24.5847,20.0001,NaN,NaN,NaN,NaN,""
41.5755,24.6525,20.0003,NaN,NaN,NaN,NaN,""
59.2689,24.7054,20.0002,NaN,NaN,NaN,NaN,""
79.8489,24.684,20,NaN,NaN,NaN,NaN,""
97.6068,24.6153,19.9999,NaN,NaN,NaN,NaN,""
109.187,24.5857,19.9999,NaN,NaN,NaN,NaN,""
123.919,24.5648,20,NaN,NaN,NaN,NaN,""
136.814,24.633,20,NaN,NaN,NaN,NaN,""
159.188,24.6304,20,NaN,NaN,NaN,NaN,""
181.562,24.6278,19.9998,NaN,NaN,NaN,NaN,""
217.617,24.6447,19.9995,NaN,NaN,NaN,NaN,""
237.537,24.5956,19.9994,NaN,NaN,NaN,NaN,""
251.056,24.5939,19.9996,NaN,NaN,NaN,NaN,""
267.324,24.6342,19.9998,NaN,NaN,NaN,NaN,""
288.653,24.6155,20,NaN,NaN,NaN,NaN,""
309.982,24.5969,20.0001,NaN,NaN,NaN,NaN,""
337.716,24.6426,20.0002,NaN,NaN,NaN,NaN,""
349.755,24.5784,20.0002,NaN,NaN,NaN,NaN,""
356.052,24.6036,20.0001,NaN,NaN,NaN,NaN,""
362.872,24.6371,20,NaN,NaN,NaN,NaN,""
371.556,24.6316,19.9999,NaN,NaN,NaN,NaN,""
401.657,24.6124,20.0001,NaN,NaN,NaN,NaN,""
420.804,24.631,20.0001,NaN,NaN,NaN,NaN,""
439.951,24.6495,20,NaN,NaN,NaN,NaN,""
463.301,24.6309,20,NaN,NaN,NaN,NaN,""
486.651,24.6123,19.9997,NaN,NaN,NaN,NaN,""
497.232,24.6503,19.9996,NaN,NaN,NaN,NaN,""
506.624,24.6696,19.9997,NaN,NaN,NaN,NaN,""
522.24,24.5366,19.9998,NaN,NaN,NaN,NaN,""
536.685,24.6272,19.9999,NaN,NaN,NaN,NaN,""
551.017,24.6276,19.9999,NaN,NaN,NaN,NaN,""
565.349,24.6281,19.9998,NaN,NaN,NaN,NaN,""
585.201,24.7018,19.9997,NaN,NaN,NaN,NaN,""
610.714,24.6735,19.9999,NaN,NaN,NaN,NaN,""
622.174,24.6608,20.0001,NaN,NaN,NaN,NaN,""
652.919,24.6377,20,NaN,NaN,NaN,NaN,""
683.665,24.6581,19.9999,NaN,NaN,NaN,NaN,""
718.053,24.6808,19.9998,NaN,NaN,NaN,NaN,""
738.857,24.6436,19.9998,NaN,NaN,NaN,NaN,""
755.149,24.6245,20,NaN,NaN,NaN,NaN,""
772.802,24.6323,20.0001,NaN,NaN,NaN,NaN,""
797.915,24.6433,19.9999,NaN,NaN,NaN,NaN,""
824.682,24.6551,20.0003,NaN,NaN,NaN,NaN,""
842.114,24.6384,20.0003,NaN,NaN,NaN,NaN,""
877.546,24.6045,19.9998,NaN,NaN,NaN,NaN,""
901.604,24.6029,19.9998,NaN,NaN,NaN,NaN,""
925.662,24.6189,19.9998,NaN,NaN,NaN,NaN,""
959.151,24.6413,19.9997,NaN,NaN,NaN,NaN,""
983.55,24.639,19.9998,NaN,NaN,NaN,NaN,""
1008.83,24.6367,20,NaN,NaN,NaN,NaN,""
1050.63,24.6328,19.9998,NaN,NaN,NaN,NaN,""
1077.65,24.6303,19.9993,NaN,NaN,NaN,NaN,""
1104.3,24.6278,19.9998,NaN,NaN,NaN,NaN,""
1118.51,24.6281,19.9998,NaN,NaN,NaN,NaN,""
1152.32,24.6287,19.9998,NaN,NaN,NaN,NaN,""
1216.13,24.6298,19.9995,NaN,NaN,NaN,NaN,""
1243.95,24.6302,19.9999,NaN,NaN,NaN,NaN,""
1292.08,24.6311,19.9999,NaN,NaN,NaN,NaN,""
1314.59,24.5848,19.9998,NaN,NaN,NaN,NaN,""
1336.94,24.623,19.9998,NaN,NaN,NaN,NaN,""
1359.29,24.6611,19.9997,NaN,NaN,NaN,NaN,""
1397.31,24.6495,19.9996,NaN,NaN,NaN,NaN,""
1424.12,24.6413,20,NaN,NaN,NaN,NaN,""
1438.51,24.644,19.9999,NaN,NaN,NaN,NaN,""
1452.9,24.6532,19.9998,NaN,NaN,NaN,NaN,""
1501.71,24.6841,20.0002,NaN,NaN,NaN,NaN,""
1510.64,24.6393,20.0002,NaN,NaN,NaN,NaN,""
1519.58,24.5945,20.0002,NaN,NaN,NaN,NaN,""
1540.65,24.7665,20.0001,NaN,NaN,NaN,NaN,""
1585.68,24.7291,20,NaN,NaN,NaN,NaN,""
1610.6,24.6675,20.0001,NaN,NaN,NaN,NaN,""
1626.3,24.6383,20.0001,NaN,NaN,NaN,NaN,""
1656.38,24.6598,20.0002,NaN,NaN,NaN,NaN,""
1681.27,24.6776,20,NaN,NaN,NaN,NaN,""
1697.61,24.6779,19.9996,NaN,NaN,NaN,NaN,""
1702.91,24.6781,19.9996,NaN,NaN,NaN,NaN,""
1725.04,24.6785,20,NaN,NaN,NaN,NaN,""
1763.98,24.6794,20,NaN,NaN,NaN,NaN,""
1765.79,24.6794,20,NaN,NaN,NaN,NaN,""
1776.59,24.6013,19.9999,NaN,NaN,NaN,NaN,""
1800.71,24.6393,19.9997,NaN,NaN,NaN,NaN,""
1817.08,24.6509,19.9999,NaN,NaN,NaN,NaN,""
1850.18,24.6418,20.0003,NaN,NaN,NaN,NaN,""
1853.65,24.6497,20.0004,NaN,NaN,NaN,NaN,""
1868.89,24.684,20,NaN,NaN,NaN,NaN,""
1884.19,24.6977,20,NaN,NaN,NaN,NaN,""
1900.62,24.6351,19.9999,NaN,NaN,NaN,NaN,""
1912.28,24.6313,20,NaN,NaN,NaN,NaN,""
1929.67,24.6517,20.0002,NaN,NaN,NaN,NaN,""
1940.71,24.6634,20,NaN,NaN,NaN,NaN,""
1951.75,24.6681,19.9999,NaN,NaN,NaN,NaN,""
1995.35,24.6865,20.0001,NaN,NaN,NaN,NaN,""
1997.69,24.683,20.0001,NaN,NaN,NaN,NaN,""
2009.65,24.6653,20.0003,NaN,NaN,NaN,NaN,""
2023.06,24.6487,20.0003,NaN,NaN,NaN,NaN,""
2048.78,24.7018,20.0001,NaN,NaN,NaN,NaN,""
2065.86,24.6694,20,NaN,NaN,NaN,NaN,""
2082.95,24.6369,19.9999,NaN,NaN,NaN,NaN,""
2108.15,24.6435,19.9996,NaN,NaN,NaN,NaN,""
2136.11,24.6508,19.9998,NaN,NaN,NaN,NaN,""
2150.09,24.63,20,NaN,NaN,NaN,NaN,""
2164.07,24.5947,20.0003,NaN,NaN,NaN,NaN,""
2177.95,24.6296,20.0002,NaN,NaN,NaN,NaN,""
2194.68,24.7195,20.0001,NaN,NaN,NaN,NaN,""
2209.15,24.7972,19.9995,NaN,NaN,NaN,NaN,""
2209.28,24.7979,19.9995,NaN,NaN,NaN,NaN,""
2217.78,24.711,19.9996,NaN,NaN,NaN,NaN,""
2246.61,24.7027,19.9996,NaN,NaN,NaN,NaN,""
2283.15,24.6922,19.9994,NaN,NaN,NaN,NaN,""
2300.33,24.6926,19.9997,NaN,NaN,NaN,NaN,""
2317.52,24.7044,20,NaN,NaN,NaN,NaN,""
2337.21,24.7121,20,NaN,NaN,NaN,NaN,""
2356.61,24.6868,20,NaN,NaN,NaN,NaN,""
2379.78,24.7511,19.9999,NaN,NaN,NaN,NaN,""
2403.67,24.6862,19.9999,NaN,NaN,NaN,NaN,""
2419.23,24.6685,20,NaN,NaN,NaN,NaN,""
2450.52,24.6757,20.0002,NaN,NaN,NaN,NaN,""
2478.97,24.6822,19.9998,NaN,NaN,NaN,NaN,""
2497.63,24.6751,20,NaN,NaN,NaN,NaN,""
2516.29,24.6674,20.0002,NaN,NaN,NaN,NaN,""
2536.45,24.7016,20.0001,NaN,NaN,NaN,NaN,""
2555.34,24.7432,20,NaN,NaN,NaN,NaN,""
2563.15,24.7001,20,NaN,NaN,NaN,NaN,""
2570.96,24.6569,19.9999,NaN,NaN,NaN,NaN,""
2600.64,24.6836,19.9995,NaN,NaN,NaN,NaN,""
2623.58,24.6714,19.9997,NaN,NaN,NaN,NaN,""
2635.93,24.6648,19.9999,NaN,NaN,NaN,NaN,""
2651.15,24.6739,20.0001,NaN,NaN,NaN,NaN,""
2660.77,24.7067,20.0003,NaN,NaN,NaN,NaN,""
2674.91,24.682,20.0002,NaN,NaN,NaN,NaN,""
2687.83,24.6595,20,NaN,NaN,NaN,NaN,""
2698.72,24.6652,20.0001,NaN,NaN,NaN,NaN,""
2709.61,24.6741,20.0002,NaN,NaN,NaN,NaN,""
2725.93,24.6873,19.9998,NaN,NaN,NaN,NaN,""
2745.68,24.6756,19.9999,NaN,NaN,NaN,NaN,""
2772.78,24.6537,20,NaN,NaN,NaN,NaN,""
2788.73,24.7115,20,NaN,NaN,NaN,NaN,""
2804.68,24.7694,20,NaN,NaN,NaN,NaN,""
2826.55,24.7392,20,NaN,NaN,NaN,NaN,""
2844.49,24.7144,19.9997,NaN,NaN,NaN,NaN,""
2856.79,24.7105,19.9996,NaN,NaN,NaN,NaN,""
2903.15,24.6958,19.9998,NaN,NaN,NaN,NaN,""
2945.03,24.6825,20.0002,NaN,NaN,NaN,NaN,""
2950.65,24.721,20.0002,NaN,NaN,NaN,NaN,""
2956.27,24.7595,20.0001,NaN,NaN,NaN,NaN,""
2973.9,24.7502,19.9998,NaN,NaN,NaN,NaN,""
2999.03,24.737,19.9999,NaN,NaN,NaN,NaN,""
3017.46,24.7274,19.9999,NaN,NaN,NaN,NaN,""
3035.9,24.7178,19.9999,NaN,NaN,NaN,NaN,""
3040.97,24.6367,19.9999,NaN,NaN,NaN,NaN,""
3065.27,24.6694,19.9998,NaN,NaN,NaN,NaN,""
3086.44,24.6809,19.9998,NaN,NaN,NaN,NaN,""
3107.61,24.6925,19.9999,NaN,NaN,NaN,NaN,""
3117.89,24.6575,20,NaN,NaN,NaN,NaN,""
3126.26,24.6377,19.9999,NaN,NaN,NaN,NaN,""
3155.12,24.6693,19.9994,NaN,NaN,NaN,NaN,""
3172.45,24.6677,19.9996,NaN,NaN,NaN,NaN,""
3193.93,24.6584,19.9999,NaN,NaN,NaN,NaN,""
3214.1,24.6778,19.9999,NaN,NaN,NaN,NaN,""
3225.33,24.682,19.9999,NaN,NaN,NaN,NaN,""
3237.3,24.6575,19.9998,NaN,NaN,NaN,NaN,""
3248.57,24.6629,19.9999,NaN,NaN,NaN,NaN,""
3262.35,24.7282,19.9999,NaN,NaN,NaN,NaN,""
3283.26,24.7909,20,NaN,NaN,NaN,NaN,""
3287.58,24.7715,20,NaN,NaN,NaN,NaN,""
3302.78,24.7032,19.9998,NaN,NaN,NaN,NaN,""
3312.07,24.7166,19.9998,NaN,NaN,NaN,NaN,""
3325.91,24.7365,19.9998,NaN,NaN,NaN,NaN,""
3355.27,24.6822,20,NaN,NaN,NaN,NaN,""
3380.52,24.7075,19.9999,NaN,NaN,NaN,NaN,""
3402.33,24.7293,19.9998,NaN,NaN,NaN,NaN,""
3417.77,24.742,20,NaN,NaN,NaN,NaN,""
3433.22,24.7396,20.0002,NaN,NaN,NaN,NaN,""
3454.49,24.7363,20,NaN,NaN,NaN,NaN,""
3473.39,24.776,19.9999,NaN,NaN,NaN,NaN,""
3487.61,24.772,19.9999,NaN,NaN,NaN,NaN,""
3495.28,24.7327,19.9999,NaN,NaN,NaN,NaN,""
3504.15,24.6367,19.9999,NaN,NaN,NaN,NaN,""
3536.42,24.6653,20,NaN,NaN,NaN,NaN,""
3543.58,24.6683,20,NaN,NaN,NaN,NaN,""
3561.09,24.6755,20.0004,NaN,NaN,NaN,NaN,""
3577.76,24.6824,20,NaN,NaN,NaN,NaN,""
3605.1,24.6792,20,NaN,NaN,NaN,NaN,""
3623.12,24.668,20,NaN,NaN,NaN,NaN,""
3651.43,24.7012,20,NaN,NaN,NaN,NaN,""
3667.82,24.6611,20,NaN,NaN,NaN,NaN,""
3680.2,24.6609,20.0001,NaN,NaN,NaN,NaN,""
3689.18,24.7065,20.0001,NaN,NaN,NaN,NaN,""
3715.1,24.6902,20.0003,NaN,NaN,NaN,NaN,""
3738.53,24.7303,20.0004,NaN,NaN,NaN,NaN,""
3745.02,24.7352,20.0002,NaN,NaN,NaN,NaN,""
3751.51,24.7113,19.9999,NaN,NaN,NaN,NaN,""
3761.18,24.6758,19.9999,NaN,NaN,NaN,NaN,""
3775.4,24.7425,19.9998,NaN,NaN,NaN,NaN,""
3790.22,24.6551,19.9998,NaN,NaN,NaN,NaN,""
3799.26,24.6222,19.9997,NaN,NaN,NaN,NaN,""
3807.08,24.6215,19.9998,NaN,NaN,NaN,NaN,""
3815.28,24.7798,19.9998,NaN,NaN,NaN,NaN,""
3862,24.7779,20,NaN,NaN,NaN,NaN,""
3889.17,24.73,20.0001,NaN,NaN,NaN,NaN,""
3909.08,24.7104,20.0001,NaN,NaN,NaN,NaN,""
3950.76,24.7263,20.0002,NaN,NaN,NaN,NaN,""
3969.12,24.749,20,NaN,NaN,NaN,NaN,""
3987.48,24.7718,19.9995,NaN,NaN,NaN,NaN,""
4000.32,24.7515,19.9996,NaN,NaN,NaN,NaN,""
4010.26,24.7359,19.9998,NaN,NaN,NaN,NaN,""
4023.29,24.7214,20,NaN,NaN,NaN,NaN,""
4042.4,24.7032,20.0004,NaN,NaN,NaN,NaN,""
4062.39,24.6752,20.0003,NaN,NaN,NaN,NaN,""
4074.48,24.632,20.0002,NaN,NaN,NaN,NaN,""
4082.39,24.6866,20.0001,NaN,NaN,NaN,NaN,""
4088.18,24.7112,20,NaN,NaN,NaN,NaN,""
4110.97,24.702,19.9996,NaN,NaN,NaN,NaN,""
4128.89,24.6948,19.9999,NaN,NaN,NaN,NaN,""
4139.15,24.7103,19.9999,NaN,NaN,NaN,NaN,""
4156.37,24.7362,19.9998,NaN,NaN,NaN,NaN,""
[...]
30001,24.3558,19.9999,0.000610497,130.884,0.000152624,32.721,""
31858.1,24.3569,20.0001,0.000594267,132.003,0.000148567,33.0007,""
33427,24.3361,19.9995,0.000581196,132.925,0.000145299,33.2312,""
34896.2,24.3788,20.0001,0.000569992,133.77,0.000142498,33.4426,""
36464.4,24.3647,19.9996,0.000559549,134.656,0.000139887,33.664,""
38045.8,24.3696,20,0.000549623,135.533,0.000137406,33.8833,""
39697.7,24.2834,19.9999,0.000539774,136.433,0.000134943,34.1082,""
41626.2,24.3051,20.0003,0.000529906,137.464,0.000132476,34.3661,""
43492.4,24.3169,19.9999,0.000520302,138.444,0.000130076,34.6109,""
45212.1,24.2928,19.9997,0.000511884,139.331,0.000127971,34.8328,""
46717.1,24.3317,19.9999,0.000504925,140.097,0.000126231,35.0241,""
48277.3,24.3154,19.9999,0.000498735,140.88,0.000124684,35.22,""
49822.3,24.3213,19.9998,0.000492503,141.645,0.000123126,35.4114,""
51393.6,24.3584,19.9997,0.00048645,142.414,0.000121612,35.6035,""
53181.5,24.3118,19.9998,0.000479523,143.277,0.000119881,35.8193,""
54885.8,24.3441,20,0.000473953,144.09,0.000118488,36.0225,""
56422.9,24.3144,20,0.000468429,144.814,0.000117107,36.2035,""
58193.7,24.3004,19.9998,0.000462465,145.638,0.000115616,36.4096,""
59821.6,24.3294,19.9996,0.000457853,146.387,0.000114463,36.5968,""
61653,24.2834,20,0.000452501,147.221,0.000113125,36.8052,""
63171.3,24.2913,19.9996,0.00044827,147.904,0.000112068,36.976,""
64785.4,24.2617,19.9998,0.000443565,148.624,0.000110891,37.156,""
66508.8,24.2921,20,0.000439385,149.385,0.000109846,37.3462,""
68312.9,24.2974,19.9994,0.000433769,150.172,0.000108442,37.5431,""
70110.3,24.279,19.9997,0.00043075,150.949,0.000107688,37.7373,""
71788.4,24.2525,19.9997,0.000427293,151.669,0.000106823,37.9172,""
73610.1,24.2755,20,0.000422835,152.443,0.000105709,38.1109,""
75239.2,24.2648,20,0.000419789,153.13,0.000104947,38.2824,""
76885.6,24.2947,20.0005,0.00041739,153.819,0.000104347,38.4547,""
78561.8,24.2812,19.9998,0.000413625,154.515,0.000103406,38.6288,""
80110.9,24.2808,19.9997,0.000411274,155.154,0.000102819,38.7885,""
81791.5,24.2863,19.9996,0.000409074,155.843,0.000102268,38.9608,""
83614,24.3539,19.9999,0.000406358,156.586,0.00010159,39.1466,""
85398.2,24.3049,19.9999,0.000404638,157.31,0.000101159,39.3275,""
86939.6,24.2979,20.0002,0.000402774,157.932,0.000100694,39.483,""
88925.2,24.2828,19.9998,0.000400205,158.729,0.000100051,39.6822,""
90651.1,24.2856,19.9999,0.000397938,159.417,9.94845e-05,39.8544,""
92256.9,24.2984,20.0002,0.000396228,160.055,9.9057e-05,40.0138,""
94093.6,24.2269,19.9998,0.000394645,160.782,9.86613e-05,40.1954,""
95688.7,24.2879,20,0.000393865,161.411,9.84662e-05,40.3527,""
97522.2,24.344,19.9998,0.000392787,162.132,9.81967e-05,40.5329,""
99084.7,24.297,19.9999,0.000391757,162.745,9.79392e-05,40.6861,""
100840,24.2739,19.9996,0.00039097,163.432,9.77424e-05,40.8579,""
102628,24.276,20.0002,0.000389909,164.13,9.74772e-05,41.0324,""
104347,24.2753,19.9998,0.000389534,164.8,9.73835e-05,41.1999,""
106058,24.2135,19.9998,0.000389088,165.465,9.7272e-05,41.3664,""
107934,24.2764,20.0008,0.000388724,166.195,9.71809e-05,41.5488,""
109539,24.303,20,0.000388129,166.819,9.70324e-05,41.7048,""
111300,24.3073,19.9998,0.000388474,167.503,9.71185e-05,41.8758,""
113118,24.2944,19.9997,0.000388216,168.209,9.70541e-05,42.0523,""
114815,24.3225,20,0.000388776,168.868,9.71939e-05,42.217,""
116611,24.3376,19.9997,0.00038946,169.566,9.7365e-05,42.3916,""
118529,24.3463,20.0002,0.000390001,170.314,9.75003e-05,42.5786,""
120255,24.2993,20.0001,0.000390661,170.988,9.76653e-05,42.7471,""
121735,24.3312,20.0002,0.000391505,171.567,9.78763e-05,42.8917,""
123302,24.3287,19.9999,0.000391942,172.18,9.79855e-05,43.0451,""
124803,24.2933,20,0.000392776,172.77,9.8194e-05,43.1924,""
126706,24.3538,19.9997,0.000394107,173.519,9.85268e-05,43.3796,""
128436,24.3462,19.9999,0.000395421,174.201,9.88552e-05,43.5503,""
130091,24.3484,19.9996,0.00039675,174.857,9.91875e-05,43.7142,""
131889,24.3018,19.9995,0.000398273,175.571,9.95683e-05,43.8928,""
133419,24.3289,19.9998,0.000400094,176.182,0.000100024,44.0454,""
135215,24.318,19.9997,0.000401643,176.902,0.000100411,44.2254,""
137072,24.3047,20,0.000404249,177.65,0.000101062,44.4124,""
138748,24.3144,19.9999,0.000406323,178.329,0.000101581,44.5822,""
140190,24.2738,19.9997,0.000408285,178.916,0.000102071,44.7291,""
141639,24.2888,20,0.000410221,179.509,0.000102555,44.8773,""
143140,24.2935,19.9994,0.000412807,180.127,0.000103202,45.0318,""
144785,24.3184,19.9998,0.000415755,180.809,0.000103939,45.2022,""
146647,24.3215,19.9996,0.000419261,181.587,0.000104815,45.3967,""
148768,24.2825,19.9995,0.000422819,182.48,0.000105705,45.62,""
150776,24.3417,20,0.000427176,183.334,0.000106794,45.8334,""
152828,24.2514,19.9996,0.000431254,184.214,0.000107814,46.0535,""
154658,24.2125,19.9997,0.000435364,185.007,0.000108841,46.2519,""
156519,24.2891,19.9999,0.000439934,185.822,0.000109984,46.4555,""
158256,24.2847,19.9996,0.000444605,186.59,0.000111151,46.6475,""
160134,24.3465,20,0.000449736,187.43,0.000112434,46.8575,""
161937,24.3891,20,0.000455519,188.246,0.00011388,47.0615,""
164062,24.4045,20,0.000462599,189.221,0.00011565,47.3053,""
166110,24.5921,19.9999,0.000469699,190.176,0.000117425,47.544,""
168156,24.4202,20,0.000477595,191.146,0.000119399,47.7864,""
169930,24.4614,19.9998,0.000484546,191.999,0.000121137,47.9997,""
172319,24.5016,19.9997,0.000494743,193.168,0.000123686,48.2921,""
174364,24.4688,19.9996,0.000503975,194.189,0.000125994,48.5472,""
176435,24.5154,19.9999,0.000513763,195.243,0.000128441,48.8107,""
178636,24.54,19.9997,0.000524915,196.386,0.000131229,49.0964,""
180722,24.5577,19.9993,0.000535857,197.492,0.000133964,49.3729,""
182853,24.5277,19.9997,0.000549273,198.648,0.000137318,49.662,""
184792,24.5465,19.9998,0.00056146,199.725,0.000140365,49.9312,""
186820,24.5878,20.0001,0.000575395,200.877,0.000143849,50.2192,""
188521,24.6138,19.9998,0.000587851,201.867,0.000146963,50.4666,""
190701,24.5924,19.9996,0.000605399,203.167,0.00015135,50.7917,""
192681,24.6115,20.0001,0.000622524,204.382,0.000155631,51.0955,""
194524,24.6334,19.9994,0.000639018,205.545,0.000159755,51.3862,""
196291,24.6138,19.9998,0.000656823,206.689,0.000164206,51.6723,""
198262,24.5853,20,0.000677547,208.004,0.000169387,52.001,""
200301,24.5478,19.9998,0.00070054,209.408,0.000175135,52.3521,""
202254,24.5145,19.9999,0.000724477,210.8,0.000181119,52.7001,""
204059,24.5493,19.9993,0.000748769,212.129,0.000187192,53.0323,""
206134,24.5022,19.9999,0.000778546,213.714,0.000194636,53.4285,""
208247,24.5393,19.9996,0.000811411,215.393,0.000202853,53.8482,""
210295,24.506,19.9997,0.000846365,217.09,0.000211591,54.2726,""
211899,24.466,19.9999,0.000875469,218.471,0.000218867,54.6177,""
213705,24.4207,19.9995,0.000910902,220.084,0.000227725,55.021,""
215709,24.4861,20,0.000953047,221.95,0.000238262,55.4875,""
218003,24.4894,19.9996,0.00100483,224.195,0.000251208,56.0488,""
219855,24.4261,19.9999,0.00105096,226.099,0.00026274,56.5247,""
221726,24.415,20.0001,0.00109983,228.11,0.000274957,57.0275,""
223521,24.4483,19.9996,0.00114985,230.128,0.000287464,57.532,""
225365,24.44,19.9997,0.00120418,232.298,0.000301045,58.0745,""
227323,24.4093,20,0.00126563,234.716,0.000316407,58.679,""
229518,24.3938,20.0004,0.00133971,237.574,0.000334927,59.3934,""
231345,24.3385,19.9998,0.00140435,240.079,0.000351089,60.0199,""
233200,24.3625,19.9996,0.00147435,242.749,0.000368587,60.6873,""
235077,24.3818,19.9996,0.00154839,245.587,0.000387098,61.3966,""
237065,24.3727,20.0001,0.00163037,248.745,0.000407591,62.1862,""
239214,24.3653,20.0001,0.0017243,252.349,0.000431075,63.0872,""
241062,24.3591,19.9998,0.00180831,255.612,0.000452077,63.9031,""
243020,24.354,20,0.00190115,259.244,0.000475288,64.811,""
244905,24.2992,19.9999,0.00199381,262.915,0.000498453,65.7287,""
246764,24.3979,20.0001,0.00208826,266.709,0.000522064,66.6771,""
248783,24.4486,20,0.00219312,271.03,0.000548281,67.7574,""
250699,24.4839,20.0002,0.00229588,275.33,0.000573969,68.8325,""
252642,24.5211,19.9996,0.00240226,279.893,0.000600565,69.9732,""
254509,24.5288,20,0.00250615,284.474,0.000626538,71.1184,""
256446,24.545,19.9998,0.00261525,289.435,0.000653812,72.3587,""
258345,24.6192,20.0001,0.00272441,294.503,0.000681103,73.6257,""
260258,24.5868,19.9993,0.00283559,299.823,0.000708898,74.9556,""
262192,24.6794,19.9997,0.00294933,305.417,0.000737332,76.3541,""
264324,24.7188,20,0.00307843,311.843,0.000769608,77.9607,""
266161,24.7326,20,0.00319338,317.602,0.000798346,79.4006,""
268117,24.8232,20.0001,0.0033217,323.971,0.000830425,80.9928,""
268951,24.9797,20,0.00337716,326.765,0.00084429,81.6912,""
268951,24.9798,20,NaN,NaN,NaN,NaN,"Ampoule removed"
268953,24.98,20,NaN,NaN,NaN,NaN,""