File: TAInstCalorimetry/DATA/myexp10.csv
Summary
,Component - OPC
Mass,4g
Name,"OPC"
ID,"Bernburg CEM I 42.5R 29.09.21"

"Time","Temperature [AmbientT(Therm3T)]","Temperature [Temperature]","Heat flow [Signal]","Heat [Signal]","Normalized heat flow [Signal]","Normalized heat [Signal]","Time markers"
-1883.05,24.5456,20,NaN,NaN,NaN,NaN,""
-1882.05,24.545,20,1.43069e-06,NaN,3.57673e-07,NaN,""
-1863.3,24.5329,20,1.3348e-06,NaN,3.337e-07,NaN,""
-1852.1,24.5661,19.9999,1.26242e-06,NaN,3.15605e-07,NaN,""
-1840.37,24.6008,19.9999,1.17901e-06,NaN,2.94753e-07,NaN,""
-1816.52,24.5518,19.9999,1.00946e-06,NaN,2.52365e-07,NaN,""
-1801.72,24.5438,19.9999,6.37132e-07,NaN,1.59283e-07,NaN,""
-1778.02,24.5537,20,4.08311e-08,NaN,1.02078e-08,NaN,""
-1763.41,24.5598,20,2.5859e-07,NaN,6.46475e-08,NaN,""
-1742.93,24.5684,20.0001,2.15583e-07,NaN,5.38957e-08,NaN,""
-1724.54,24.5691,20.0001,1.70784e-07,NaN,4.26959e-08,NaN,""
-1674.38,24.5711,20,-8.29417e-08,NaN,-2.07354e-08,NaN,""
-1654.04,24.5719,20,1.69346e-07,NaN,4.23364e-08,NaN,""
-1641.66,24.5724,20.0002,3.22853e-07,NaN,8.07133e-08,NaN,""
-1632.68,24.5728,20.0003,2.99157e-07,NaN,7.47894e-08,NaN,""
-1597.39,24.5742,20.0001,2.06002e-07,NaN,5.15005e-08,NaN,""
-1572.37,24.5533,20,-1.3887e-07,NaN,-3.47176e-08,NaN,""
-1558.2,24.5414,20,-2.98261e-07,NaN,-7.45652e-08,NaN,""
-1544.42,24.53,19.9999,-3.08065e-07,NaN,-7.70162e-08,NaN,""
-1530.64,24.5545,19.9999,-3.87086e-07,NaN,-9.67714e-08,NaN,""
-1506.95,24.5967,19.9998,-7.27078e-07,NaN,-1.81769e-07,NaN,""
-1484.11,24.5803,19.9998,-1.05472e-06,NaN,-2.63679e-07,NaN,""
-1465.9,24.5686,19.9997,-9.33178e-07,NaN,-2.33295e-07,NaN,""
-1447.68,24.5675,19.9997,-8.11639e-07,NaN,-2.0291e-07,NaN,""
-1444.22,24.5673,19.9997,-8.61714e-07,NaN,-2.15429e-07,NaN,""
-1433.8,24.5668,19.9998,-1.01239e-06,NaN,-2.53098e-07,NaN,""
-1407.74,24.5653,20,-5.8626e-07,NaN,-1.46565e-07,NaN,""
-1388.37,24.5642,20.0001,-4.39495e-07,NaN,-1.09874e-07,NaN,""
-1359.35,24.5626,20.0002,-2.19644e-07,NaN,-5.4911e-08,NaN,""
-1344.73,24.5728,19.9998,-5.1688e-08,NaN,-1.2922e-08,NaN,""
-1330.1,24.584,19.9995,1.95601e-07,NaN,4.89002e-08,NaN,""
-1312.7,24.5974,19.9996,4.25892e-07,NaN,1.06473e-07,NaN,""
-1299.15,24.5981,19.9996,3.96052e-07,NaN,9.90129e-08,NaN,""
-1285.6,24.5824,19.9996,3.56927e-07,NaN,8.92317e-08,NaN,""
-1271.02,24.5853,19.9997,2.844e-07,NaN,7.10999e-08,NaN,""
-1262.8,24.6166,19.9998,2.43494e-07,NaN,6.08734e-08,NaN,""
-1240.92,24.5875,20.0002,1.34599e-07,NaN,3.36498e-08,NaN,""
-1227.69,24.5341,20.0004,3.84906e-07,NaN,9.62266e-08,NaN,""
-1222.55,24.5322,20.0004,4.82338e-07,NaN,1.20585e-07,NaN,""
-1210.43,24.5564,20.0003,6.70848e-07,NaN,1.67712e-07,NaN,""
-1198.31,24.5735,20.0003,6.3537e-07,NaN,1.58843e-07,NaN,""
-1183.83,24.5733,20.0001,5.92961e-07,NaN,1.4824e-07,NaN,""
-1183.33,24.5733,20.0001,5.91497e-07,NaN,1.47874e-07,NaN,""
-1173.1,24.5732,19.9999,8.76945e-07,NaN,2.19236e-07,NaN,""
-1167.45,24.5731,19.9999,8.96086e-07,NaN,2.24022e-07,NaN,""
-1154.38,24.573,19.9999,8.64796e-07,NaN,2.16199e-07,NaN,""
-1141.31,24.5898,19.9999,6.43206e-07,NaN,1.60801e-07,NaN,""
-1129.05,24.6056,20,1.03896e-07,NaN,2.5974e-08,NaN,""
-1123.16,24.6132,20,7.08971e-08,NaN,1.77243e-08,NaN,""
-1117.57,24.5912,20,3.75111e-08,NaN,9.37777e-09,NaN,""
-1106.6,24.5479,20,-9.89836e-08,NaN,-2.47459e-08,NaN,""
-1094.45,24.5668,20.0001,-2.5011e-07,NaN,-6.25274e-08,NaN,""
-1082.31,24.5857,20.0001,-2.26559e-07,NaN,-5.66398e-08,NaN,""
-1067.75,24.5836,20.0002,-1.8224e-07,NaN,-4.55599e-08,NaN,""
-1049.22,24.5655,19.9999,-1.48413e-07,NaN,-3.71032e-08,NaN,""
-1036.23,24.5544,19.9997,-1.59995e-07,NaN,-3.99989e-08,NaN,""
-1003.49,24.5788,19.9998,-1.89186e-07,NaN,-4.72964e-08,NaN,""
-984.775,24.5926,19.9999,-6.05134e-08,NaN,-1.51284e-08,NaN,""
-966.062,24.5931,20.0001,6.81589e-08,NaN,1.70397e-08,NaN,""
-951.71,24.5935,20.0002,-8.29216e-08,NaN,-2.07304e-08,NaN,""
-922.754,24.5942,20.0003,-3.8773e-07,NaN,-9.69325e-08,NaN,""
-912.671,24.5945,20.0001,-4.93876e-07,NaN,-1.23469e-07,NaN,""
-902.136,24.6139,19.9999,-4.87084e-07,NaN,-1.21771e-07,NaN,""
-891.601,24.6333,19.9997,-4.72802e-07,NaN,-1.18201e-07,NaN,""
-886.054,24.548,19.9998,-4.65282e-07,NaN,-1.16321e-07,NaN,""
-867.609,24.5762,20,-4.40276e-07,NaN,-1.10069e-07,NaN,""
-849.849,24.5788,20.0001,-4.16198e-07,NaN,-1.0405e-07,NaN,""
-832.089,24.5814,20,-3.92121e-07,NaN,-9.80303e-08,NaN,""
-826.429,24.5552,20,-3.84448e-07,NaN,-9.6112e-08,NaN,""
-818.054,24.5164,19.9999,-7.44313e-08,NaN,-1.86078e-08,NaN,""
-812.398,24.5335,19.9999,-2.20931e-08,NaN,-5.52327e-09,NaN,""
-802.522,24.5634,19.9998,-2.26954e-07,NaN,-5.67386e-08,NaN,""
-792.647,24.5739,19.9997,-4.31816e-07,NaN,-1.07954e-07,NaN,""
-777.647,24.5679,19.9995,-6.00936e-07,NaN,-1.50234e-07,NaN,""
-765.78,24.5631,19.9996,-6.21444e-07,NaN,-1.55361e-07,NaN,""
-753.913,24.5751,19.9998,-5.90455e-07,NaN,-1.47614e-07,NaN,""
-736.962,24.6013,20,-5.02888e-07,NaN,-1.25722e-07,NaN,""
-721.581,24.6092,20,-4.23428e-07,NaN,-1.05857e-07,NaN,""
-706.199,24.5922,19.9999,-3.19886e-07,NaN,-7.99715e-08,NaN,""
-694.851,24.5796,19.9996,-2.26718e-07,NaN,-5.66795e-08,NaN,""
-675.117,24.5577,19.9996,-6.47e-08,NaN,-1.6175e-08,NaN,""
-664.216,24.5625,19.9996,-1.44518e-07,NaN,-3.61296e-08,NaN,""
-653.316,24.5715,19.9997,-2.24337e-07,NaN,-5.60842e-08,NaN,""
-626.523,24.5934,19.9999,2.81086e-07,NaN,7.02715e-08,NaN,""
-606.104,24.5985,20,3.04322e-07,NaN,7.60806e-08,NaN,""
-585.684,24.5958,19.9999,3.27559e-07,NaN,8.18897e-08,NaN,""
-570.1,24.5937,19.9999,8.8289e-08,NaN,2.20723e-08,NaN,""
-541.742,24.5898,20.0001,-3.47114e-07,NaN,-8.67785e-08,NaN,""
-531.488,24.5884,20,-1.78919e-07,NaN,-4.47298e-08,NaN,""
-521.234,24.587,19.9999,-1.07247e-08,NaN,-2.68118e-09,NaN,""
-507.632,24.5865,19.9997,-5.03801e-08,NaN,-1.2595e-08,NaN,""
-494.031,24.5862,19.9996,-9.00354e-08,NaN,-2.25088e-08,NaN,""
-472.21,24.5857,19.9996,1.45408e-07,NaN,3.63521e-08,NaN,""
-456.513,24.5853,19.9998,3.14784e-07,NaN,7.8696e-08,NaN,""
-444.708,24.5851,19.9999,2.32814e-07,NaN,5.82035e-08,NaN,""
-423.921,24.5846,19.9998,8.84714e-08,NaN,2.21178e-08,NaN,""
-411.462,24.5843,19.9996,2.6262e-07,NaN,6.56551e-08,NaN,""
-407.865,24.5843,19.9996,3.12911e-07,NaN,7.82278e-08,NaN,""
-399.079,24.6121,19.9996,4.35708e-07,NaN,1.08927e-07,NaN,""
-386.62,24.6515,19.9998,3.03524e-07,NaN,7.58809e-08,NaN,""
-373.2,24.6492,20,1.59112e-07,NaN,3.97779e-08,NaN,""
-363.746,24.625,19.9999,3.83932e-07,NaN,9.59831e-08,NaN,""
-354.741,24.62,19.9999,6.38527e-07,NaN,1.59632e-07,NaN,""
-345.735,24.6189,19.9999,4.50963e-07,NaN,1.12741e-07,NaN,""
-340.805,24.6183,19.9999,4.31103e-07,NaN,1.07776e-07,NaN,""
-317.585,24.6155,19.9998,5.44874e-07,NaN,1.36219e-07,NaN,""
-299.785,24.6133,19.9998,1.18157e-07,NaN,2.95392e-08,NaN,""
-281.984,24.6112,19.9997,-3.0856e-07,NaN,-7.714e-08,NaN,""
-251.955,24.6076,19.9997,-4.04001e-07,NaN,-1.01e-07,NaN,""
-234.863,24.6101,19.9998,-5.34774e-07,NaN,-1.33694e-07,NaN,""
-221.99,24.612,20,-6.49532e-07,NaN,-1.62383e-07,NaN,""
-209.179,24.6139,20.0002,-3.21733e-07,NaN,-8.04333e-08,NaN,""
-198.882,24.6154,20.0003,-4.73829e-07,NaN,-1.18457e-07,NaN,""
-188.585,24.6169,20.0003,-6.25925e-07,NaN,-1.56481e-07,NaN,""
-170.377,24.6196,20.0004,-3.61164e-07,NaN,-9.0291e-08,NaN,""
-154.921,24.6219,20.0001,-1.36419e-07,NaN,-3.41048e-08,NaN,""
-147.175,24.623,19.9998,-3.10194e-08,NaN,-7.75485e-09,NaN,""
-139.429,24.6242,19.9996,7.03932e-08,NaN,1.75983e-08,NaN,""
-130.923,24.6254,19.9996,1.81753e-07,NaN,4.54382e-08,NaN,""
-117.712,24.6015,19.9997,2.65101e-07,NaN,6.62753e-08,NaN,""
-104.501,24.5775,19.9998,1.0484e-07,NaN,2.62101e-08,NaN,""
-89.7427,24.5867,19.9999,-5.00838e-08,NaN,-1.25209e-08,NaN,""
-84.0542,24.5902,20,9.93531e-08,NaN,2.48383e-08,NaN,""
-83.0542,24.5908,20,2.16962e-05,NaN,5.42406e-06,NaN,""
-68.2954,24.6209,20.0001,NaN,NaN,NaN,NaN,""
-61.3306,24.6469,20.0002,NaN,NaN,NaN,NaN,""
-54.3657,24.6115,20.0001,NaN,NaN,NaN,NaN,""
-41.9448,24.5438,20,NaN,NaN,NaN,NaN,""
-24.4526,24.524,19.9999,NaN,NaN,NaN,NaN,""
-14.6577,24.4251,19.9998,NaN,NaN,NaN,NaN,""
-8.2085,24.4348,19.9998,NaN,NaN,NaN,NaN,""
-1.85693,24.5127,19.9999,NaN,NaN,NaN,NaN,""
13.9458,24.6375,19.9999,NaN,NaN,NaN,NaN,""
32.5396,24.6007,20,NaN,NaN,NaN,NaN,""
39.8677,24.6113,20.0001,NaN,NaN,NaN,NaN,""
47.1958,24.6337,20.0003,NaN,NaN,NaN,NaN,""
58.3228,24.6689,20.0002,NaN,NaN,NaN,NaN,""
73.8677,24.7308,20.0001,NaN,NaN,NaN,NaN,""
99.5537,24.6428,20,NaN,NaN,NaN,NaN,""
114.519,24.6065,20,NaN,NaN,NaN,NaN,""
135.774,24.5633,20,NaN,NaN,NaN,NaN,""
148.79,24.6381,20.0001,NaN,NaN,NaN,NaN,""
163.178,24.6262,20.0001,NaN,NaN,NaN,NaN,""
177.566,24.6142,20,NaN,NaN,NaN,NaN,""
208.43,24.6394,20,NaN,NaN,NaN,NaN,""
228.461,24.6557,19.9995,NaN,NaN,NaN,NaN,""
239.982,24.6479,19.9994,NaN,NaN,NaN,NaN,""
258.946,24.635,19.9994,NaN,NaN,NaN,NaN,""
280.571,24.6204,19.9999,NaN,NaN,NaN,NaN,""
311.529,24.613,20.0001,NaN,NaN,NaN,NaN,""
342.488,24.6188,20.0002,NaN,NaN,NaN,NaN,""
410.247,24.6314,20,NaN,NaN,NaN,NaN,""
450.346,24.6388,20.0001,NaN,NaN,NaN,NaN,""
472.2,24.6275,19.9999,NaN,NaN,NaN,NaN,""
505.29,24.6104,19.9996,NaN,NaN,NaN,NaN,""
509.524,24.6493,19.9996,NaN,NaN,NaN,NaN,""
515.165,24.7011,19.9997,NaN,NaN,NaN,NaN,""
530.524,24.5662,19.9999,NaN,NaN,NaN,NaN,""
538.92,24.5804,19.9999,NaN,NaN,NaN,NaN,""
549.618,24.6217,19.9999,NaN,NaN,NaN,NaN,""
569.639,24.629,19.9999,NaN,NaN,NaN,NaN,""
586.12,24.6524,19.9997,NaN,NaN,NaN,NaN,""
599.446,24.723,19.9996,NaN,NaN,NaN,NaN,""
615.02,24.6895,19.9998,NaN,NaN,NaN,NaN,""
629.946,24.6573,20.0001,NaN,NaN,NaN,NaN,""
645.52,24.6451,20,NaN,NaN,NaN,NaN,""
685.321,24.6162,19.9999,NaN,NaN,NaN,NaN,""
699.563,24.6479,19.9999,NaN,NaN,NaN,NaN,""
713.805,24.6795,19.9998,NaN,NaN,NaN,NaN,""
746.491,24.6742,19.9998,NaN,NaN,NaN,NaN,""
765.071,24.6468,19.9999,NaN,NaN,NaN,NaN,""
779.167,24.6201,20,NaN,NaN,NaN,NaN,""
798.832,24.6352,20,NaN,NaN,NaN,NaN,""
817.133,24.6493,19.9998,NaN,NaN,NaN,NaN,""
838.131,24.6654,20.0003,NaN,NaN,NaN,NaN,""
851.323,24.645,20.0003,NaN,NaN,NaN,NaN,""
873.915,24.6101,20,NaN,NaN,NaN,NaN,""
894.3,24.6045,19.9998,NaN,NaN,NaN,NaN,""
925.68,24.596,19.9998,NaN,NaN,NaN,NaN,""
944.083,24.6248,19.9997,NaN,NaN,NaN,NaN,""
962.485,24.6536,19.9996,NaN,NaN,NaN,NaN,""
984.685,24.6482,19.9996,NaN,NaN,NaN,NaN,""
998.594,24.6448,19.9998,NaN,NaN,NaN,NaN,""
1038.58,24.635,19.9999,NaN,NaN,NaN,NaN,""
1062.31,24.6298,19.9998,NaN,NaN,NaN,NaN,""
1097.67,24.6221,19.9996,NaN,NaN,NaN,NaN,""
1130.51,24.6149,20.0001,NaN,NaN,NaN,NaN,""
1153.86,24.6311,19.9999,NaN,NaN,NaN,NaN,""
1177.21,24.6546,19.9998,NaN,NaN,NaN,NaN,""
1199.65,24.6434,19.9996,NaN,NaN,NaN,NaN,""
1218.75,24.6272,19.9994,NaN,NaN,NaN,NaN,""
1242.06,24.6277,19.9996,NaN,NaN,NaN,NaN,""
1258.63,24.6281,19.9998,NaN,NaN,NaN,NaN,""
1322.38,24.6295,19.9998,NaN,NaN,NaN,NaN,""
1326.95,24.5667,19.9998,NaN,NaN,NaN,NaN,""
1341.24,24.6246,19.9998,NaN,NaN,NaN,NaN,""
1385.7,24.6763,19.9998,NaN,NaN,NaN,NaN,""
1403.21,24.6339,19.9998,NaN,NaN,NaN,NaN,""
1434.08,24.6312,19.9998,NaN,NaN,NaN,NaN,""
1456.81,24.654,19.9999,NaN,NaN,NaN,NaN,""
1464.99,24.6782,20,NaN,NaN,NaN,NaN,""
1490.98,24.6347,20.0001,NaN,NaN,NaN,NaN,""
1514.52,24.677,20.0002,NaN,NaN,NaN,NaN,""
1523.95,24.5526,20.0002,NaN,NaN,NaN,NaN,""
1531.04,24.5883,20.0003,NaN,NaN,NaN,NaN,""
1541.58,24.6412,20,NaN,NaN,NaN,NaN,""
1548.96,24.7252,19.9999,NaN,NaN,NaN,NaN,""
1554.65,24.7694,19.9999,NaN,NaN,NaN,NaN,""
1568.44,24.7606,20.0001,NaN,NaN,NaN,NaN,""
1582.63,24.7516,19.9998,NaN,NaN,NaN,NaN,""
1590.58,24.7687,19.9997,NaN,NaN,NaN,NaN,""
1598.52,24.7857,19.9998,NaN,NaN,NaN,NaN,""
1608.34,24.6816,19.9999,NaN,NaN,NaN,NaN,""
1622.63,24.6795,20.0001,NaN,NaN,NaN,NaN,""
1650.39,24.6753,20.0002,NaN,NaN,NaN,NaN,""
1669.85,24.6773,20.0001,NaN,NaN,NaN,NaN,""
1689.32,24.6799,20,NaN,NaN,NaN,NaN,""
1712.95,24.683,19.9994,NaN,NaN,NaN,NaN,""
1735.33,24.6859,19.9999,NaN,NaN,NaN,NaN,""
1755.53,24.6876,20,NaN,NaN,NaN,NaN,""
1775.73,24.6568,20,NaN,NaN,NaN,NaN,""
1798.31,24.6223,19.9999,NaN,NaN,NaN,NaN,""
1819.36,24.6331,19.9998,NaN,NaN,NaN,NaN,""
1864.95,24.6566,20.0004,NaN,NaN,NaN,NaN,""
1887.94,24.6658,20.0002,NaN,NaN,NaN,NaN,""
1910.94,24.6649,20.0001,NaN,NaN,NaN,NaN,""
1976.74,24.6623,20,NaN,NaN,NaN,NaN,""
2034.11,24.66,20.0002,NaN,NaN,NaN,NaN,""
2085.96,24.6579,20,NaN,NaN,NaN,NaN,""
2112.95,24.6568,19.9996,NaN,NaN,NaN,NaN,""
2139.61,24.6557,19.9998,NaN,NaN,NaN,NaN,""
2152.6,24.6552,20,NaN,NaN,NaN,NaN,""
2169.06,24.586,20.0003,NaN,NaN,NaN,NaN,""
2180.14,24.5835,20.0002,NaN,NaN,NaN,NaN,""
2197.62,24.6533,20.0001,NaN,NaN,NaN,NaN,""
2211.15,24.7241,19.9999,NaN,NaN,NaN,NaN,""
2221.85,24.7862,19.9997,NaN,NaN,NaN,NaN,""
2229.38,24.7133,19.9996,NaN,NaN,NaN,NaN,""
2246.14,24.7086,19.9996,NaN,NaN,NaN,NaN,""
2268.05,24.7025,19.9997,NaN,NaN,NaN,NaN,""
2295.07,24.6949,19.9994,NaN,NaN,NaN,NaN,""
2309.16,24.6919,19.9997,NaN,NaN,NaN,NaN,""
2323.24,24.7029,20,NaN,NaN,NaN,NaN,""
2343.45,24.7187,20,NaN,NaN,NaN,NaN,""
2360.26,24.6982,20,NaN,NaN,NaN,NaN,""
2372.94,24.6989,20,NaN,NaN,NaN,NaN,""
2392.16,24.7508,20,NaN,NaN,NaN,NaN,""
2422.8,24.6676,19.9999,NaN,NaN,NaN,NaN,""
2443.85,24.6787,20,NaN,NaN,NaN,NaN,""
2461.32,24.6879,20.0002,NaN,NaN,NaN,NaN,""
2476.04,24.683,20,NaN,NaN,NaN,NaN,""
2490.77,24.674,19.9998,NaN,NaN,NaN,NaN,""
2514.79,24.6594,20.0003,NaN,NaN,NaN,NaN,""
2527.5,24.6677,20.0002,NaN,NaN,NaN,NaN,""
2540.59,24.6762,20,NaN,NaN,NaN,NaN,""
2551.05,24.6988,20.0001,NaN,NaN,NaN,NaN,""
2561.51,24.7276,20.0002,NaN,NaN,NaN,NaN,""
2573.22,24.7071,20,NaN,NaN,NaN,NaN,""
2582.39,24.6552,19.9999,NaN,NaN,NaN,NaN,""
2600.8,24.6732,19.9996,NaN,NaN,NaN,NaN,""
2615.79,24.6824,19.9996,NaN,NaN,NaN,NaN,""
2632.84,24.6724,19.9996,NaN,NaN,NaN,NaN,""
2654.36,24.6599,20.0001,NaN,NaN,NaN,NaN,""
2658.76,24.6573,20.0002,NaN,NaN,NaN,NaN,""
2672.81,24.7061,20.0003,NaN,NaN,NaN,NaN,""
2683.53,24.6853,20.0002,NaN,NaN,NaN,NaN,""
2696.62,24.6599,20,NaN,NaN,NaN,NaN,""
2708.8,24.6739,20,NaN,NaN,NaN,NaN,""
2723.41,24.6907,20.0002,NaN,NaN,NaN,NaN,""
2730.74,24.6818,20,NaN,NaN,NaN,NaN,""
2738.07,24.6701,19.9998,NaN,NaN,NaN,NaN,""
2749.67,24.6592,19.9999,NaN,NaN,NaN,NaN,""
2769.26,24.7022,19.9999,NaN,NaN,NaN,NaN,""
2776.07,24.6222,19.9999,NaN,NaN,NaN,NaN,""
2789.26,24.6758,20,NaN,NaN,NaN,NaN,""
2799.44,24.7089,20,NaN,NaN,NaN,NaN,""
2828.19,24.7464,20,NaN,NaN,NaN,NaN,""
2843.36,24.7118,19.9999,NaN,NaN,NaN,NaN,""
2858.54,24.6773,19.9997,NaN,NaN,NaN,NaN,""
2871.76,24.6824,19.9996,NaN,NaN,NaN,NaN,""
2889.16,24.6892,19.9997,NaN,NaN,NaN,NaN,""
2913.84,24.6837,19.9998,NaN,NaN,NaN,NaN,""
2949.13,24.6758,20.0001,NaN,NaN,NaN,NaN,""
2960.81,24.7143,20.0002,NaN,NaN,NaN,NaN,""
2972.35,24.7519,20,NaN,NaN,NaN,NaN,""
2990.54,24.7394,19.9998,NaN,NaN,NaN,NaN,""
3033.29,24.71,19.9999,NaN,NaN,NaN,NaN,""
3058.67,24.6627,19.9998,NaN,NaN,NaN,NaN,""
3074.3,24.6491,19.9998,NaN,NaN,NaN,NaN,""
3099.67,24.661,19.9999,NaN,NaN,NaN,NaN,""
3125.17,24.673,20,NaN,NaN,NaN,NaN,""
3144.55,24.671,19.9998,NaN,NaN,NaN,NaN,""
3163.94,24.6689,19.9996,NaN,NaN,NaN,NaN,""
3210.84,24.6639,19.9999,NaN,NaN,NaN,NaN,""
3245.09,24.6602,19.9998,NaN,NaN,NaN,NaN,""
3265.52,24.658,19.9999,NaN,NaN,NaN,NaN,""
3287.95,24.8203,20.0001,NaN,NaN,NaN,NaN,""
3301.7,24.7703,20,NaN,NaN,NaN,NaN,""
3315.45,24.7204,19.9999,NaN,NaN,NaN,NaN,""
3333.23,24.723,19.9998,NaN,NaN,NaN,NaN,""
3351.01,24.7256,19.9999,NaN,NaN,NaN,NaN,""
3371.07,24.6432,20,NaN,NaN,NaN,NaN,""
3377.69,24.6731,20,NaN,NaN,NaN,NaN,""
3384.31,24.703,19.9999,NaN,NaN,NaN,NaN,""
3409.92,24.7288,19.9998,NaN,NaN,NaN,NaN,""
3436.15,24.7552,20.0001,NaN,NaN,NaN,NaN,""
3450.17,24.7465,20.0001,NaN,NaN,NaN,NaN,""
3464.2,24.7379,20,NaN,NaN,NaN,NaN,""
3481.97,24.7588,19.9998,NaN,NaN,NaN,NaN,""
3497.49,24.769,19.9999,NaN,NaN,NaN,NaN,""
3509.4,24.7402,19.9999,NaN,NaN,NaN,NaN,"Reaction start. Measuring position. Signal correct"
3509.45,24.7401,19.9999,NaN,NaN,NaN,NaN,""
3509.95,24.7311,19.9999,0.000121924,6.62417e-05,3.04811e-05,1.65604e-05,""
3876.95,24.7535,20,0.175669,6.04963,0.0439172,1.51241,""
3989.45,24.775,19.9998,0.204756,29.3348,0.0511891,7.3337,""
4171.95,24.6985,19.9998,0.126891,59.5095,0.0317228,14.8774,""
4376.7,24.7412,19.9998,0.0684842,78.9344,0.0171211,19.7336,""
4639.45,24.7117,20,0.0318654,91.4523,0.00796635,22.8631,""
4901.95,24.7591,19.9999,0.0161826,97.4811,0.00404565,24.3703,""
5264.7,24.6864,19.9999,0.00789108,101.576,0.00197277,25.394,""
5801.38,24.7165,19.9997,0.00432184,104.63,0.00108046,26.1574,""
6515.34,24.7595,19.9992,0.00303203,107.165,0.000758007,26.7912,""
7656,24.6606,19.9999,0.0022538,110.123,0.000563449,27.5308,""
8836.45,24.5372,19.9992,0.00181077,112.502,0.000452693,28.1255,""
10503.8,24.5312,20,0.00142231,115.171,0.000355577,28.7928,""
12010.8,24.5017,19.9996,0.00119868,117.135,0.000299671,29.2836,""
13778.1,24.4337,19.9995,0.0010213,119.112,0.000255325,29.7781,""
15495.3,24.4637,19.9997,0.000882578,120.739,0.000220644,30.1848,""
17297.2,24.4604,19.9998,0.000779847,122.232,0.000194962,30.5581,""
18838.9,24.4671,19.9997,0.000710166,123.379,0.000177541,30.8447,""
20386.8,24.4273,20,0.000686064,124.452,0.000171516,31.113,""
22358.8,24.351,19.9997,0.000689364,125.807,0.000172341,31.4518,""
24086.9,24.3845,19.9998,0.000687618,126.999,0.000171904,31.7496,""
25924.7,24.3578,20.0001,0.000675854,128.252,0.000168964,32.0631,""
27810.5,24.3622,19.9999,0.000660165,129.512,0.000165041,32.378,""
29400.3,24.3316,19.9998,0.000647124,130.551,0.000161781,32.6378,""
31208.2,24.333,20,0.000633526,131.709,0.000158381,32.9271,""
32948.9,24.3267,20,0.000621541,132.801,0.000155385,33.2002,""
34477.3,24.3388,19.9999,0.000611874,133.744,0.000152969,33.4359,""
36072.9,24.3235,19.9998,0.000603412,134.713,0.000150853,33.6783,""
37876.8,24.3466,19.9999,0.000593765,135.793,0.000148441,33.9482,""
39649.7,24.3368,19.9998,0.000585847,136.838,0.000146462,34.2096,""
41342.8,24.3225,20,0.000578234,137.824,0.000144558,34.456,""
43039.9,24.3329,19.9998,0.000572123,138.8,0.000143031,34.7,""
44585.5,24.3068,19.9996,0.000566437,139.679,0.000141609,34.9199,""
46506.3,24.3077,19.9998,0.000560587,140.762,0.000140147,35.1904,""
47965.2,24.269,20,0.000556632,141.577,0.000139158,35.3942,""
49629.3,24.2859,20,0.000552804,142.5,0.000138201,35.625,""
51231.4,24.3328,20,0.000549844,143.383,0.000137461,35.8458,""
53031.3,24.3281,19.9998,0.00054697,144.37,0.000136743,36.0926,""
54729.8,24.3389,19.9997,0.000545606,145.298,0.000136401,36.3246,""
56310.2,24.3089,19.9999,0.000544971,146.16,0.000136243,36.54,""
57870.7,24.314,20.0002,0.000545328,147.011,0.000136332,36.7526,""
59633.8,24.3298,19.9996,0.000547278,147.973,0.000136819,36.9933,""
61310.5,24.3204,19.9999,0.00055006,148.893,0.000137515,37.2233,""
62880.9,24.2872,19.9999,0.000554356,149.761,0.000138589,37.4401,""
64489.7,24.274,20,0.000561465,150.658,0.000140366,37.6645,""
66380.7,24.2779,19.9998,0.00057125,151.729,0.000142813,37.9321,""
67993.1,24.279,20,0.000582224,152.658,0.000145556,38.1645,""
69863.4,24.2414,19.9998,0.000598919,153.761,0.00014973,38.4403,""
71454,24.2785,19.9998,0.000616826,154.728,0.000154206,38.6819,""
73026.2,24.297,20.0001,0.000637595,155.713,0.000159399,38.9283,""
74798.3,24.2897,20,0.000665203,156.866,0.000166301,39.2166,""
76490,24.2505,19.9999,0.000697754,158.019,0.000174438,39.5046,""
78232.4,24.3161,20.0004,0.000736089,159.267,0.000184022,39.8168,""
79927.8,24.2846,19.9997,0.000780586,160.552,0.000195147,40.138,""
81556,24.2617,19.9999,0.000829832,161.862,0.000207458,40.4655,""
83389.3,24.2976,19.9998,0.000893622,163.441,0.000223406,40.8601,""
85287.6,24.2923,20.0005,0.000969451,165.207,0.000242363,41.3018,""
87137.4,24.3416,19.9999,0.00105367,167.077,0.000263418,41.7693,""
88696,24.2891,19.9997,0.00113189,168.779,0.000282972,42.1947,""
90603,24.2833,20,0.00123892,171.038,0.000309729,42.7594,""
92677.8,24.3153,20.0004,0.00136929,173.741,0.000342324,43.4352,""
94666.4,24.2728,19.9997,0.00150728,176.598,0.000376819,44.1496,""
96293.8,24.2601,20.0001,0.00163076,179.15,0.000407689,44.7876,""
98085.2,24.2904,20.0002,0.00177496,182.199,0.00044374,45.5498,""
99815.5,24.2616,19.9998,0.00192376,185.398,0.00048094,46.3495,""
101497,24.2721,19.9999,0.00207636,188.759,0.00051909,47.1898,""
103040,24.2554,19.9998,0.00222314,192.076,0.000555786,48.019,""
104489,24.2955,19.9998,0.00236645,195.401,0.000591611,48.8502,""
106169,24.258,19.9996,0.00253774,199.518,0.000634434,49.8796,""
107828,24.2869,19.9994,0.00271324,203.874,0.00067831,50.9685,""
109568,24.3042,19.9999,0.00290049,208.756,0.000725123,52.1891,""
111335,24.3163,19.9998,0.00309423,214.053,0.000773558,53.5132,""
113091,24.3117,19.9997,0.0032892,219.66,0.000822301,54.915,""
114867,24.3306,19.9999,0.00348718,225.675,0.000871795,56.4187,""
116517,24.3153,19.9996,0.00366985,231.579,0.000917463,57.8948,""
118193,24.3548,20,0.00385421,237.887,0.000963553,59.4717,""
119784,24.3381,19.9999,0.00402586,244.156,0.00100646,61.039,""
121577,24.3138,19.9998,0.00421485,251.543,0.00105371,62.8857,""
123001,24.3094,19.9999,0.0043607,257.648,0.00109017,64.4121,""
124495,24.3397,19.9999,0.00450857,264.277,0.00112714,66.0692,""
126230,24.3181,19.9996,0.00467422,272.244,0.00116856,68.0611,""
127817,24.3311,19.9997,0.00481832,279.778,0.00120458,69.9444,""
129349,24.3213,19.9998,0.00495065,287.261,0.00123766,71.8152,""
130955,24.3305,19.9997,0.005081,295.317,0.00127025,73.8294,""
132573,24.3358,19.9997,0.00520461,303.638,0.00130115,75.9094,""
134081,24.3411,19.9997,0.00531275,311.572,0.00132819,77.8929,""
135708,24.3215,19.9998,0.00542275,320.304,0.00135569,80.0761,""
137343,24.3098,19.9997,0.00552837,329.258,0.00138209,82.3145,""
139103,24.3147,19.9996,0.00564314,339.084,0.00141079,84.7709,""
140629,24.2816,19.9998,0.00575058,347.776,0.00143764,86.944,""
142312,24.2913,20.0002,0.00587336,357.559,0.00146834,89.3898,""
144331,24.2948,19.9994,0.0059988,369.554,0.0014997,92.3884,""
146113,24.2931,19.9997,0.00607462,380.313,0.00151865,95.0783,""
148553,24.2976,20,0.00615115,395.234,0.00153779,98.8084,""
150275,24.2616,20.0006,0.00619423,405.864,0.00154856,101.466,""
152250,24.2836,20,0.00620899,418.119,0.00155225,104.53,""
154448,24.297,19.9999,0.00618414,431.743,0.00154603,107.936,""
156531,24.2892,19.9999,0.00614059,444.588,0.00153515,111.147,""
158277,24.2846,19.9995,0.00609505,455.269,0.00152376,113.817,""
160128,24.3386,20.0001,0.00603969,466.5,0.00150992,116.625,""
161905,24.4138,19.9996,0.0059829,477.18,0.00149573,119.295,""
164001,24.4123,19.9998,0.00591046,489.647,0.00147761,122.412,""
166059,24.4054,19.9997,0.00583566,501.735,0.00145892,125.434,""
167967,24.4263,19.9999,0.00576511,512.803,0.00144128,128.201,""
170005,24.4413,19.9997,0.00568679,524.469,0.0014217,131.117,""
171893,24.478,20,0.00561391,535.14,0.00140348,133.785,""
173806,24.4598,19.9998,0.00553884,545.808,0.00138471,136.452,""
175741,24.4967,19.9995,0.00546201,556.45,0.0013655,139.113,""
177698,24.5469,19.9997,0.00538549,567.064,0.00134637,141.766,""
179609,24.528,19.9999,0.00531005,577.286,0.00132751,144.321,""
181318,24.5227,20.0002,0.00524454,586.3,0.00131114,146.575,""
183196,24.5365,19.9999,0.0051733,596.084,0.00129333,149.021,""
184972,24.5495,19.9999,0.00510764,605.212,0.00127691,151.303,""
186866,24.5735,19.9997,0.00503961,614.821,0.0012599,153.705,""
189069,24.609,19.9997,0.00496364,625.841,0.00124091,156.46,""
191040,24.6061,20,0.0048994,635.56,0.00122485,158.89,""
192945,24.6195,20,0.00483954,644.835,0.00120989,161.209,""
194720,24.6389,19.9997,0.0047859,653.379,0.00119648,163.345,""
196682,24.6208,19.9994,0.0047291,662.709,0.00118228,165.677,""
198996,24.5792,19.9999,0.00466428,673.58,0.00116607,168.395,""
200671,24.5777,20.0001,0.00461832,681.352,0.00115458,170.338,""
202413,24.5378,20,0.00457175,689.358,0.00114294,172.34,""
204372,24.5232,19.9997,0.00451982,698.265,0.00112995,174.566,""
206113,24.5421,19.9999,0.00447438,706.091,0.0011186,176.523,""
207991,24.5126,19.9994,0.00442529,714.449,0.00110632,178.612,""
209795,24.511,20,0.00437799,722.388,0.0010945,180.597,""
211578,24.4703,19.9998,0.00433386,730.154,0.00108346,182.538,""
213318,24.4274,20,0.00428514,737.651,0.00107128,184.413,""
215203,24.4467,19.9999,0.00423432,745.681,0.00105858,186.42,""
217160,24.4659,19.9998,0.00418097,753.917,0.00104524,188.479,""
219192,24.4242,20,0.00412391,762.355,0.00103098,190.589,""
221277,24.4295,20,0.00406369,770.89,0.00101592,192.723,""
223284,24.4238,19.9999,0.00400344,778.984,0.00100086,194.746,""
225234,24.4259,20,0.00394323,786.735,0.000985809,196.684,""
227110,24.4265,20,0.00388271,794.074,0.000970678,198.519,""
229041,24.4068,19.9997,0.00381837,801.511,0.000954592,200.378,""
230804,24.373,19.9997,0.00375802,808.189,0.000939504,202.047,""
232721,24.3753,19.9995,0.00369109,815.331,0.000922773,203.833,""
234628,24.3684,19.9998,0.00362212,822.301,0.00090553,205.575,""
236637,24.354,20,0.00354741,829.503,0.000886853,207.376,""
238578,24.3471,19.9996,0.00347311,836.319,0.000868278,209.08,""
240490,24.3411,20.0002,0.00339958,842.889,0.000849895,210.722,""
242606,24.3954,19.9998,0.00331725,849.998,0.000829313,212.5,""
244395,24.3459,20.0002,0.00324742,855.87,0.000811856,213.967,""
246489,24.3552,19.9997,0.00316536,862.582,0.00079134,215.646,""
248503,24.4666,19.9994,0.00308695,868.88,0.000771736,217.22,""
250301,24.4535,19.9998,0.00301803,874.369,0.000754507,218.592,""
252401,24.5134,19.9995,0.00293866,880.624,0.000734665,220.156,""
254455,24.5211,19.9998,0.00286225,886.58,0.000715563,221.645,""
256685,24.5814,19.9998,0.00278144,892.872,0.000695361,223.218,""
258579,24.5906,20,0.00271547,898.079,0.000678867,224.52,""
260718,24.634,20.0001,0.00264204,903.805,0.00066051,225.951,""
262610,24.6253,20.0002,0.0025805,908.747,0.000645125,227.187,""
264307,24.7467,19.9999,0.00252725,913.081,0.000631813,228.27,""
265989,24.7729,19.9997,0.00247652,917.288,0.00061913,229.322,""
267748,24.8489,19.9999,0.00242559,921.6,0.000606399,230.4,""
268807,24.9119,20,0.00239582,924.152,0.000598954,231.038,""
268808,24.9139,20,NaN,NaN,NaN,NaN,"Ampoule removed"
268810,24.9221,20,NaN,NaN,NaN,NaN,""