File: TAInstCalorimetry/DATA/myexp9.csv
Summary
Mass,4g
Name,"OPC"

"Time","Temperature","Heat flow","Heat","Normalized heat flow","Normalized heat","Time markers"
-5402.35,20,NaN,NaN,NaN,NaN,""
-5402.05,20,-1.00519e-05,NaN,-2.51296e-06,NaN,""
-5389.92,20,-1.02441e-05,NaN,-2.56103e-06,NaN,""
-5371.95,20,-9.71671e-06,NaN,-2.42918e-06,NaN,""
-5349.05,20,-9.3509e-06,NaN,-2.33773e-06,NaN,""
-5329.04,20,-9.87433e-06,NaN,-2.46858e-06,NaN,""
-5306.39,20,-9.73553e-06,NaN,-2.43388e-06,NaN,""
-5270.67,20,-1.05732e-05,NaN,-2.64329e-06,NaN,""
-5237.73,20,-9.68119e-06,NaN,-2.4203e-06,NaN,""
-5194.37,20,-9.15042e-06,NaN,-2.2876e-06,NaN,""
-5159.48,20,-8.05346e-06,NaN,-2.01336e-06,NaN,""
-5113.37,20,-8.31206e-06,NaN,-2.07801e-06,NaN,""
-5062.61,20,-7.5729e-06,NaN,-1.89322e-06,NaN,""
-5030.31,20,-7.41251e-06,NaN,-1.85313e-06,NaN,""
-4971.66,20,-6.10272e-06,NaN,-1.52568e-06,NaN,""
-4927.15,20,-6.30923e-06,NaN,-1.57731e-06,NaN,""
-4895.53,20,-5.13115e-06,NaN,-1.28279e-06,NaN,""
-4875.03,20,-4.87849e-06,NaN,-1.21962e-06,NaN,""
-4852.29,20,-4.57166e-06,NaN,-1.14292e-06,NaN,""
-4843.6,20,-4.96815e-06,NaN,-1.24204e-06,NaN,""
-4809.96,20,-4.29493e-06,NaN,-1.07373e-06,NaN,""
-4764.41,20,-3.46573e-06,NaN,-8.66433e-07,NaN,""
-4734.6,20,-2.67675e-06,NaN,-6.69188e-07,NaN,""
-4705.78,20,-1.93389e-06,NaN,-4.83472e-07,NaN,""
-4667.86,20,-1.99537e-06,NaN,-4.98843e-07,NaN,""
-4653.6,20,-1.38027e-06,NaN,-3.45066e-07,NaN,""
-4610.89,20,-1.27342e-06,NaN,-3.18356e-07,NaN,""
-4535.83,20,-1.46052e-07,NaN,-3.65131e-08,NaN,""
-4507.13,20,1.03717e-06,NaN,2.59292e-07,NaN,""
-4475.27,20,6.02328e-07,NaN,1.50582e-07,NaN,""
-4447.94,20,3.87056e-07,NaN,9.6764e-08,NaN,""
-4428.57,20,9.72683e-07,NaN,2.43171e-07,NaN,""
-4409.72,20,9.58305e-07,NaN,2.39576e-07,NaN,""
-4382.86,20,2.16683e-06,NaN,5.41707e-07,NaN,""
-4368.05,20,1.75869e-06,NaN,4.39672e-07,NaN,""
-4332.23,20,2.57608e-06,NaN,6.44019e-07,NaN,""
-4276.93,20,3.15221e-06,NaN,7.88052e-07,NaN,""
-4246.87,20,3.08297e-06,NaN,7.70743e-07,NaN,""
-4233.55,20,3.7524e-06,NaN,9.38101e-07,NaN,""
-4219.89,20,3.62349e-06,NaN,9.05872e-07,NaN,""
-4196.71,20,4.28049e-06,NaN,1.07012e-06,NaN,""
-4171.54,20,4.2711e-06,NaN,1.06778e-06,NaN,""
-4147.61,20,4.9902e-06,NaN,1.24755e-06,NaN,""
-4123.71,20,5.23777e-06,NaN,1.30944e-06,NaN,""
-4100.39,20,5.92845e-06,NaN,1.48211e-06,NaN,""
-4081.68,20,5.8033e-06,NaN,1.45082e-06,NaN,""
-4009.7,20,6.80395e-06,NaN,1.70099e-06,NaN,""
-3990.05,20,6.67808e-06,NaN,1.66952e-06,NaN,""
-3969.64,20,7.34882e-06,NaN,1.83721e-06,NaN,""
-3953.3,20,7.02087e-06,NaN,1.75522e-06,NaN,""
-3904.47,20,7.38045e-06,NaN,1.84511e-06,NaN,""
-3870.8,20,8.59983e-06,NaN,2.14996e-06,NaN,""
-3839.25,20,8.43122e-06,NaN,2.10781e-06,NaN,""
-3808.68,20,9.06403e-06,NaN,2.26601e-06,NaN,""
-3773.29,20,8.69944e-06,NaN,2.17486e-06,NaN,""
-3757.05,20,8.90884e-06,NaN,2.22721e-06,NaN,""
-3730.62,20,8.83088e-06,NaN,2.20772e-06,NaN,""
-3696.78,20,9.37945e-06,NaN,2.34486e-06,NaN,""
-3671.94,20,9.91915e-06,NaN,2.47979e-06,NaN,""
-3637.82,20,9.46619e-06,NaN,2.36655e-06,NaN,""
-3603.05,20,1.01272e-05,NaN,2.5318e-06,NaN,""
2454.24,20,NaN,NaN,NaN,NaN,"Reaction start. Measuring position. Signal correct"
2454.95,20,3.33279e-05,2.34619e-05,8.33197e-06,5.86547e-06,""
2733.95,20,0.157254,2.98077,0.0393135,0.745193,""
2784.95,20,0.255875,14.1783,0.0639687,3.54457,""
2840.95,20,0.252082,28.6721,0.0630206,7.16802,""
2947.45,20,0.185894,52.0986,0.0464734,13.0247,""
3052.39,20,0.129364,68.486,0.0323411,17.1215,""
3149.95,20,0.0918406,79.1714,0.0229601,19.7929,""
3269.17,20,0.0608675,88.1399,0.0152169,22.035,""
3429.95,20,0.0358782,95.7188,0.00896955,23.9297,""
3614.26,20,0.0206401,100.77,0.00516002,25.1926,""
3885.36,20,0.0105855,104.788,0.00264637,26.1971,""
4269.57,20,0.0057694,107.744,0.00144235,26.9359,""
5071.24,20,0.00348864,111.203,0.000872159,27.8008,""
6350.95,20,0.00254079,114.973,0.000635197,28.7432,""
8450.7,20,0.00188421,119.521,0.000471053,29.8803,""
10070.4,20,0.00167401,122.377,0.000418504,30.5943,""
11277.5,20,0.00168684,124.371,0.000421711,31.0928,""
12807.6,20,0.00186069,127.081,0.000465172,31.7702,""
14684.4,20,0.0021179,130.814,0.000529474,32.7034,""
16000.5,20,0.00231017,133.725,0.000577543,33.4311,""
17372.5,20,0.00254104,137.049,0.000635259,34.2622,""
18965.4,20,0.00285081,141.338,0.000712702,35.3344,""
20087.1,20,0.0030953,144.671,0.000773824,36.1676,""
21798,20,0.00350895,150.313,0.000877237,37.5782,""
23474.6,20,0.00395207,156.563,0.000988018,39.1409,""
25131.4,20,0.00441924,163.495,0.00110481,40.8738,""
26541.8,20,0.00483286,170.019,0.00120821,42.5048,""
28252.9,20,0.00533997,178.722,0.00133499,44.6806,""
29961.1,20,0.00584404,188.275,0.00146101,47.0688,""
31567.1,20,0.00630218,198.031,0.00157555,49.5077,""
33407.4,20,0.00679947,210.092,0.00169987,52.5231,""
35240.3,20,0.00724718,222.974,0.0018118,55.7435,""
36774.4,20,0.00758224,234.353,0.00189556,58.5883,""
38577.7,20,0.00791843,248.339,0.00197961,62.0847,""
39995.7,20,0.00813623,259.727,0.00203406,64.9317,""
41300.6,20,0.0083011,270.455,0.00207527,67.6138,""
42775.7,20,0.00844562,282.812,0.00211141,70.7031,""
44130,20,0.00853979,294.317,0.00213495,73.5794,""
46071.9,20,0.0086214,310.991,0.00215535,77.7478,""
47893.5,20,0.00864303,326.722,0.00216076,81.6805,""
50071.4,20,0.00861555,345.524,0.00215389,86.3811,""
51590.5,20,0.0085771,358.583,0.00214428,89.6458,""
53399.6,20,0.00855975,374.074,0.00213994,93.5185,""
55100.3,20,0.00860025,388.667,0.00215006,97.1667,""
56805.3,20,0.00858376,403.326,0.00214594,100.832,""
58469.9,20,0.00852374,417.57,0.00213093,104.393,""
60358.5,20,0.00839005,433.553,0.00209751,108.388,""
62511.2,20,0.00817897,451.392,0.00204474,112.848,""
64520.2,20,0.00796378,467.608,0.00199094,116.902,""
67141.5,20,0.0076693,488.103,0.00191732,122.026,""
68431.4,20,0.00752362,497.901,0.00188091,124.475,""
70170.4,20,0.00733087,510.817,0.00183272,127.704,""
72144.8,20,0.00711544,525.079,0.00177886,131.27,""
73355.2,20,0.00698414,533.613,0.00174604,133.403,""
74555.4,20,0.00685414,541.917,0.00171353,135.479,""
76128.7,20,0.00668724,552.568,0.00167181,138.142,""
77539.4,20,0.00654137,561.899,0.00163534,140.475,""
79304.7,20,0.00636171,573.286,0.00159043,143.322,""
81014.7,20,0.00619581,584.023,0.00154895,146.006,""
82439,20,0.00605956,592.751,0.00151489,148.188,""
83741.5,20,0.00593918,600.564,0.00148479,150.141,""
85664.4,20,0.0057729,611.825,0.00144323,152.956,""
87232.4,20,0.00563668,620.77,0.00140917,155.193,""
90105.2,20,0.00540235,636.625,0.00135059,159.156,""
91353.2,20,0.00530699,643.306,0.00132675,160.827,""
93088,20,0.00517472,652.398,0.00129368,163.099,""
94889.1,20,0.00504845,661.603,0.00126211,165.401,""
96407.7,20,0.00494714,669.192,0.00123678,167.298,""
97721.3,20,0.00486257,675.635,0.00121564,168.909,""
99091.3,20,0.00477373,682.235,0.00119343,170.559,""
100449,20,0.00468976,688.662,0.00117244,172.165,""
101946,20,0.00459901,695.612,0.00114975,173.903,""
103354,20,0.00452249,702.033,0.00113062,175.508,""
104848,20,0.00443747,708.726,0.00110937,177.181,""
106162,20,0.00436306,714.51,0.00109076,178.627,""
107421,20,0.00429475,719.959,0.00107369,179.99,""
108462,20,0.00423932,724.4,0.00105983,181.1,""
109904,20,0.00416596,730.461,0.00104149,182.615,""
111132,20,0.00410429,735.538,0.00102607,183.885,""
112391,20,0.00404331,740.669,0.00101083,185.167,""
113760,20,0.0039773,746.157,0.000994325,186.539,""
115505,20,0.0038986,753.032,0.00097465,188.258,""
117187,20,0.00382733,759.526,0.000956832,189.882,""
119136,20,0.00374629,766.91,0.000936572,191.728,""
120639,20,0.00368525,772.494,0.000921312,193.123,""
122399,20,0.00361592,778.919,0.000903981,194.73,""
123799,20,0.00356315,783.944,0.000890788,195.986,""
125509,20,0.00349939,789.984,0.000874847,197.496,""
127505,20,0.00342904,796.898,0.000857261,199.224,""
129425,20,0.00336364,803.418,0.000840911,200.854,""
131796,20,0.00328664,811.303,0.000821659,202.826,""
133559,20,0.0032315,817.048,0.000807875,204.262,""
135232,20,0.0031825,822.413,0.000795624,205.603,""
136631,20,0.00314292,826.838,0.00078573,206.71,""
138806,20,0.00307982,833.606,0.000769955,208.402,""
140375,20,0.00303495,838.402,0.000758739,209.601,""
141902,20,0.00299303,843.007,0.000748257,210.752,""
143571,20,0.0029478,847.962,0.00073695,211.991,""
145426,20,0.00289749,853.384,0.000724373,213.346,""
147172,20,0.00285209,858.402,0.000713022,214.601,""
148541,20,0.00281832,862.283,0.00070458,215.571,""
149768,20,0.00278898,865.724,0.000697245,216.431,""
151348,20,0.00275243,870.101,0.000688108,217.525,""
152989,20,0.002715,874.586,0.00067875,218.646,""
154356,20,0.0026816,878.275,0.0006704,219.569,""
156015,20,0.00264191,882.69,0.000660478,220.673,""
157554,20,0.0026051,886.728,0.000651274,221.682,""
159257,20,0.00256504,891.129,0.000641261,222.782,""
160951,20,0.0025241,895.442,0.000631026,223.86,""
162065,20,0.00249908,898.238,0.00062477,224.559,""
164023,20,0.00245596,903.089,0.000613989,225.772,""
165805,20,0.00241756,907.432,0.000604391,226.858,""
167837,20,0.00237227,912.299,0.000593066,228.075,""
169638,20,0.00233315,916.534,0.000583287,229.134,""
171394,20,0.00229455,920.601,0.000573637,230.15,""
173157,20,0.00226058,924.612,0.000565144,231.153,""
174734,20,0.00223174,928.154,0.000557934,232.039,""
176914,20,0.0021886,932.973,0.000547149,233.243,""
178729,20,0.00215519,936.914,0.000538798,234.229,""
181113,20,0.00211192,942.002,0.00052798,235.5,""
183283,20,0.00206959,946.541,0.000517397,236.635,""
185180,20,0.00203468,950.432,0.00050867,237.608,""
187347,20,0.00199389,954.798,0.000498474,238.699,""
188997,20,0.00196323,958.063,0.000490807,239.516,""
190753,20,0.00194012,961.49,0.000485029,240.373,""
192468,20,0.00191322,964.795,0.000478305,241.199,""
194872,20,0.00187497,969.35,0.000468742,242.337,""
196698,20,0.00184542,972.747,0.000461354,243.187,""
198735,20,0.00181162,976.472,0.000452906,244.118,""
200661,20,0.00178292,979.933,0.00044573,244.983,""
202609,20,0.00175524,983.377,0.00043881,245.844,""
204695,20,0.00173007,987.012,0.000432519,246.753,""
206284,20,0.0017078,989.745,0.000426951,247.436,""
208963,20,0.00167326,994.273,0.000418316,248.568,""
211161,20,0.00164781,997.921,0.000411952,249.48,""
213046,20,0.00162527,1001.01,0.000406317,250.252,""
215209,20,0.00159982,1004.49,0.000399956,251.123,""
217181,20,0.00157753,1007.63,0.000394382,251.907,""
219367,20,0.00155705,1011.05,0.000389263,252.764,""
221934,20,0.00153333,1015.02,0.000383332,253.754,""
224135,20,0.00151073,1018.37,0.000377682,254.592,""
226004,20,0.00149417,1021.18,0.000373543,255.295,""
227808,20,0.00147922,1023.86,0.000369805,255.965,""
229418,20,0.00146699,1026.23,0.000366748,256.558,""
230958,20,0.00145483,1028.48,0.000363707,257.121,""
232965,20,0.00143748,1031.38,0.00035937,257.846,""
235310,20,0.00141945,1034.73,0.000354862,258.684,""
236794,20,0.00140707,1036.83,0.000351768,259.208,""
238640,20,0.00139375,1039.42,0.000348436,259.854,""
240321,20,0.00138124,1041.75,0.00034531,260.438,""
243044,20,0.00136295,1045.48,0.000340736,261.371,""
245224,20,0.00134889,1048.44,0.000337222,262.11,""
247437,20,0.00133635,1051.41,0.000334088,262.852,""
249272,20,0.0013312,1053.86,0.000332801,263.464,""
250738,20,0.00131791,1055.8,0.000329478,263.949,""
253268,20,0.00130005,1059.11,0.000325011,264.777,""
255313,20,0.00127964,1061.75,0.000319909,265.437,""
257165,20,0.00126704,1064.1,0.000316761,266.025,""
259871,20,0.00125182,1067.51,0.000312956,266.878,""
262575,20,0.00123288,1070.87,0.00030822,267.717,""
264388,20,0.00122072,1073.09,0.000305179,268.274,""
266127,20,0.001211,1075.21,0.00030275,268.802,""
268209,20,0.0011962,1077.72,0.000299051,269.429,""
269950,20,0.00118548,1079.79,0.00029637,269.947,""
272555,20,0.00116977,1082.86,0.000292442,270.714,""
274140,20,0.00115998,1084.7,0.000289995,271.176,""
275983,20,0.00114921,1086.83,0.000287303,271.708,""
278533,20,0.00113755,1089.75,0.000284386,272.437,""
280572,20,0.00112685,1092.05,0.000281713,273.014,""
282821,20,0.00111292,1094.57,0.000278231,273.643,""
284374,20,0.00110611,1096.3,0.000276529,274.074,""
285877,20,0.00110083,1097.96,0.000275207,274.489,""
287806,20,0.00109244,1100.07,0.00027311,275.018,""
289888,20,0.00108416,1102.34,0.000271039,275.585,""
291657,20,0.00107728,1104.25,0.00026932,276.062,""
293234,20,0.00107228,1105.94,0.00026807,276.486,""
294688,20,0.00106614,1107.5,0.000266535,276.875,""
296804,20,0.00105617,1109.74,0.000264043,277.436,""
298841,20,0.00104735,1111.89,0.000261838,277.972,""
300816,20,0.00103866,1113.95,0.000259666,278.487,""
302677,20,0.00103212,1115.88,0.00025803,278.969,""
305110,20,0.00102431,1118.38,0.000256078,279.595,""
307540,20,0.00101689,1120.86,0.000254222,280.215,""
309481,20,0.00100917,1122.83,0.000252294,280.707,""
311839,20,0.00100052,1125.2,0.00025013,281.299,""
313419,20,0.000993129,1126.77,0.000248282,281.693,""
315035,20,0.000988826,1128.37,0.000247206,282.093,""
316607,20,0.000980426,1129.92,0.000245107,282.48,""
318299,20,0.000974636,1131.58,0.000243659,282.894,""
320668,20,0.000967978,1133.88,0.000241994,283.469,""
322724,20,0.000965963,1135.86,0.000241491,283.966,""
322755,20,0.00096601,1135.89,0.000241503,283.973,""
322765,20,0.000966026,1135.9,0.000241507,283.976,""
322766,20,NaN,NaN,NaN,NaN,""
322767,20,NaN,NaN,NaN,NaN,""
322768,20,NaN,NaN,NaN,NaN,""
322768,20,NaN,NaN,NaN,NaN,"Ampoule removed"
322769,20,NaN,NaN,NaN,NaN,""
322770,20,NaN,NaN,NaN,NaN,""