File: TAInstCalorimetry/DATA/opc_3.csv
General Experiment Info
Bath temperature,20Â°C
,Sample - 213:2
Total mass,5.88g
Name,"Max"
,Component - OPC
Mass,4g
Name,"OPC"
ID,"42.5R CEM I"
Wizard Settings
Devices

"Time","Temperature","Heat flow","Heat","Normalized heat flow","Normalized heat","Time markers"
-7515.69,20,NaN,NaN,NaN,NaN,""
-7515.39,20,-3.13431e-06,NaN,-7.83577e-07,NaN,""
-7507.84,20,-3.32811e-06,NaN,-8.32027e-07,NaN,""
-7488.8,20,-2.44279e-06,NaN,-6.10699e-07,NaN,""
-7450.4,20,-2.63208e-06,NaN,-6.58021e-07,NaN,""
-7429.26,20,-1.87002e-06,NaN,-4.67504e-07,NaN,""
-7419.89,20,-1.12484e-06,NaN,-2.81211e-07,NaN,""
-7388.34,20,-7.32921e-07,NaN,-1.8323e-07,NaN,""
-7353.81,20,-1.09996e-06,NaN,-2.74989e-07,NaN,""
-7318.54,20,-5.65764e-07,NaN,-1.41441e-07,NaN,""
-7301.39,20,-1.44298e-06,NaN,-3.60744e-07,NaN,""
-7263.51,20,-1.16901e-06,NaN,-2.92252e-07,NaN,""
-7225.21,20,-3.09076e-06,NaN,-7.72689e-07,NaN,""
-7185.08,20,-2.77934e-06,NaN,-6.94835e-07,NaN,""
-7137.58,20,-7.47373e-07,NaN,-1.86843e-07,NaN,""
-7108.05,20,-4.78853e-07,NaN,-1.19713e-07,NaN,""
-7094.87,20,-1.20773e-06,NaN,-3.01933e-07,NaN,""
-7084,20,-9.00561e-07,NaN,-2.2514e-07,NaN,""
-7066.75,20,-1.10501e-06,NaN,-2.76253e-07,NaN,""
-7041.07,20,1.0338e-09,NaN,2.58451e-10,NaN,""
-7011.43,20,8.47424e-07,NaN,2.11856e-07,NaN,""
-6982.43,20,2.98003e-07,NaN,7.45009e-08,NaN,""
-6942.36,20,-1.7604e-07,NaN,-4.401e-08,NaN,""
-6912.34,20,3.55012e-07,NaN,8.8753e-08,NaN,""
-6891.41,20,-1.25753e-06,NaN,-3.14381e-07,NaN,""
-6863.81,20,-2.77485e-07,NaN,-6.93713e-08,NaN,""
-6822.79,20,5.46641e-07,NaN,1.3666e-07,NaN,""
-6804.23,20,2.42513e-07,NaN,6.06282e-08,NaN,""
-6781.76,20,7.18261e-07,NaN,1.79565e-07,NaN,""
-6735.85,20,3.58726e-07,NaN,8.96815e-08,NaN,""
-6703.64,20,-6.64995e-07,NaN,-1.66249e-07,NaN,""
-6552.89,20,-2.02538e-06,NaN,-5.06345e-07,NaN,""
-6506.16,20,-1.67376e-06,NaN,-4.18439e-07,NaN,""
-6486.05,20,-8.63226e-07,NaN,-2.15807e-07,NaN,""
-6477.07,20,-1.12359e-06,NaN,-2.80896e-07,NaN,""
-6465.3,20,-6.46252e-07,NaN,-1.61563e-07,NaN,""
-6441.5,20,-9.26266e-07,NaN,-2.31567e-07,NaN,""
-6412.75,20,4.25297e-07,NaN,1.06324e-07,NaN,""
-6375.25,20,7.83727e-07,NaN,1.95932e-07,NaN,""
-6343.36,20,1.08955e-06,NaN,2.72386e-07,NaN,""
-6335.32,20,1.75028e-06,NaN,4.37569e-07,NaN,""
-6307.46,20,1.53312e-06,NaN,3.83281e-07,NaN,""
-6280.25,20,2.05061e-06,NaN,5.12653e-07,NaN,""
-6240.04,20,1.22451e-06,NaN,3.06128e-07,NaN,""
-6215.85,20,1.59172e-06,NaN,3.97929e-07,NaN,""
-6196.9,20,9.92738e-07,NaN,2.48184e-07,NaN,""
-6161.77,20,2.0076e-06,NaN,5.01901e-07,NaN,""
-6126.56,20,4.56989e-07,NaN,1.14247e-07,NaN,""
-6094.5,20,8.11104e-07,NaN,2.02776e-07,NaN,""
-6075.07,20,-1.41942e-07,NaN,-3.54856e-08,NaN,""
-6036.59,20,2.24232e-06,NaN,5.6058e-07,NaN,""
-5999.41,20,2.71907e-06,NaN,6.79768e-07,NaN,""
-5975.91,20,1.60258e-06,NaN,4.00644e-07,NaN,""
-5932.39,20,1.51592e-06,NaN,3.7898e-07,NaN,""
-5886.05,20,2.79542e-06,NaN,6.98854e-07,NaN,""
-5844.4,20,2.40546e-06,NaN,6.01364e-07,NaN,""
-5787.08,20,1.93966e-06,NaN,4.84916e-07,NaN,""
-5771.73,20,1.02949e-06,NaN,2.57373e-07,NaN,""
-5748.39,20,1.16236e-06,NaN,2.90589e-07,NaN,""
-5724.73,20,4.97839e-07,NaN,1.2446e-07,NaN,""
-5715.39,20,6.64347e-07,NaN,1.66087e-07,NaN,""
0,20,NaN,NaN,NaN,NaN,"Reaction start"
0.028142,20,NaN,NaN,NaN,NaN,"Measuring position"
1.08804,20,NaN,NaN,NaN,NaN,"Signal correct"
1.61315,20,0.104828,0.0539811,0.0262069,0.0134953,""
53.6131,20,0.37015,13.886,0.0925376,3.4715,""
110.488,20,0.381514,35.9649,0.0953785,8.99123,""
198.051,20,0.28948,65.4623,0.07237,16.3656,""
291.113,20,0.205556,88.2765,0.0513891,22.0691,""
381.488,20,0.148209,104.108,0.0370522,26.0269,""
479.113,20,0.105157,116.344,0.0262893,29.0861,""
592.113,20,0.0717046,126.204,0.0179262,31.551,""
730.035,20,0.0460059,134.174,0.0115015,33.5434,""
921.808,20,0.0260809,140.871,0.00652023,35.2179,""
1172.65,20,0.0138214,145.661,0.00345534,36.4153,""
1521.04,20,0.00723842,149.128,0.00180961,37.282,""
2040.37,20,0.00422976,151.94,0.00105744,37.985,""
3115.83,20,0.00279365,155.517,0.000698413,38.8794,""
4751.11,20,0.00202678,159.36,0.000506694,39.8401,""
6382.45,20,0.00168109,162.353,0.000420274,40.5882,""
7838.68,20,0.00152475,164.679,0.000381187,41.1698,""
9465.44,20,0.00161491,167.188,0.000403727,41.797,""
11605.9,20,0.00179763,170.848,0.000449406,42.712,""
13396.3,20,0.00196016,174.206,0.000490039,43.5516,""
15469.4,20,0.00219927,178.507,0.000549817,44.6267,""
17796.8,20,0.00253983,184.007,0.000634958,46.0017,""
19323.7,20,0.00280269,188.081,0.000700672,47.0203,""
20710.6,20,0.00306707,192.148,0.000766768,48.0371,""
22734.8,20,0.00349418,198.78,0.000873544,49.695,""
23993,20,0.00378348,203.356,0.000945871,50.839,""
24997.5,20,0.00402421,207.276,0.00100605,51.8191,""
26251,20,0.00433786,212.517,0.00108446,53.1292,""
27704.7,20,0.00470587,219.09,0.00117647,54.7724,""
29763.6,20,0.00522959,229.318,0.0013074,57.3294,""
31325.2,20,0.00562199,237.792,0.0014055,59.448,""
32946.2,20,0.00601287,247.225,0.00150322,61.8062,""
35068.2,20,0.00648616,260.493,0.00162154,65.1232,""
36544,20,0.00678456,270.288,0.00169614,67.5721,""
37731.8,20,0.00700368,278.479,0.00175092,69.6199,""
39592.6,20,0.00730203,291.799,0.00182551,72.9498,""
41352.2,20,0.00753205,304.858,0.00188301,76.2146,""
43882.4,20,0.00777349,324.244,0.00194337,81.061,""
45929.7,20,0.007897,340.295,0.00197425,85.0738,""
47462.3,20,0.00795168,352.443,0.00198792,88.1108,""
49161.8,20,0.00797837,365.984,0.00199459,91.4959,""
50271.2,20,0.00798517,374.839,0.00199629,93.7098,""
52403.4,20,0.00803386,391.9,0.00200846,97.9749,""
53803.2,20,0.00813278,403.211,0.0020332,100.803,""
55815,20,0.00821253,419.671,0.00205313,104.918,""
57339.5,20,0.00820519,432.193,0.0020513,108.048,""
58900.5,20,0.00814994,444.962,0.00203749,111.241,""
61263.7,20,0.00801632,464.074,0.00200408,116.018,""
63000.5,20,0.00789011,477.889,0.00197253,119.472,""
64396.2,20,0.00777769,488.824,0.00194442,122.206,""
66014.9,20,0.00763905,501.302,0.00190976,125.326,""
67835.4,20,0.00747853,515.064,0.00186963,128.766,""
69572.6,20,0.00732041,527.919,0.0018301,131.98,""
71207.4,20,0.00716539,539.761,0.00179135,134.94,""
73031.3,20,0.00699284,552.673,0.00174821,138.168,""
74676.6,20,0.00683555,564.049,0.00170889,141.012,""
76164.1,20,0.00669261,574.111,0.00167315,143.528,""
78038.3,20,0.00651132,586.485,0.00162783,146.621,""
79782.6,20,0.00633974,597.694,0.00158494,149.424,""
81274.4,20,0.00619308,607.042,0.00154827,151.76,""
83059.8,20,0.0060185,617.943,0.00150463,154.486,""
84718.3,20,0.00586051,627.793,0.00146513,156.948,""
86146.7,20,0.00572575,636.068,0.00143144,159.017,""
88193.5,20,0.00553464,647.592,0.00138366,161.898,""
89988.6,20,0.00537381,657.383,0.00134345,164.346,""
91585.1,20,0.00523598,665.851,0.001309,166.463,""
93020.3,20,0.00511218,673.276,0.00127804,168.319,""
94846.2,20,0.0049621,682.472,0.00124053,170.618,""
96350.3,20,0.00484489,689.847,0.00121122,172.462,""
97798.2,20,0.0047369,696.782,0.00118422,174.196,""
99554.2,20,0.00461288,704.991,0.00115322,176.248,""
101121,20,0.00450554,712.134,0.00112639,178.034,""
102543,20,0.00441267,718.475,0.00110317,179.619,""
104254,20,0.00430715,725.932,0.00107679,181.483,""
105792,20,0.00421442,732.484,0.0010536,183.121,""
107347,20,0.00412455,738.969,0.00103114,184.742,""
108614,20,0.0040537,744.149,0.00101342,186.037,""
109781,20,0.00399283,748.846,0.000998207,187.212,""
110958,20,0.0039318,753.508,0.000982949,188.377,""
112223,20,0.00386898,758.44,0.000967244,189.61,""
113980,20,0.0037843,765.165,0.000946076,191.291,""
115546,20,0.00371131,771.035,0.000927828,192.759,""
116926,20,0.00364839,776.11,0.000912097,194.027,""
118364,20,0.00358708,781.314,0.00089677,195.329,""
119864,20,0.00352375,786.645,0.000880937,196.661,""
121529,20,0.00345498,792.454,0.000863746,198.114,""
123327,20,0.00338368,798.603,0.000845919,199.651,""
124820,20,0.00332556,803.609,0.000831391,200.902,""
126558,20,0.00326056,809.335,0.00081514,202.334,""
128172,20,0.00320061,814.549,0.000800152,203.637,""
129693,20,0.0031469,819.373,0.000786725,204.843,""
131438,20,0.00308505,824.812,0.000771263,206.203,""
133350,20,0.00301973,830.648,0.000754933,207.662,""
135131,20,0.00296054,835.972,0.000740135,208.993,""
136280,20,0.00292363,839.351,0.000730906,209.838,""
138415,20,0.00285469,845.52,0.000713673,211.38,""
140472,20,0.00279032,851.327,0.000697581,212.832,""
142289,20,0.00273439,856.346,0.000683597,214.087,""
143970,20,0.00268499,860.9,0.000671246,215.225,""
145912,20,0.00262872,866.062,0.000657179,216.515,""
147544,20,0.0025832,870.317,0.0006458,217.579,""
149386,20,0.0025337,875.031,0.000633424,218.758,""
150894,20,0.00249472,878.82,0.000623681,219.705,""
152214,20,0.00246044,882.091,0.00061511,220.523,""
153934,20,0.00241592,886.283,0.00060398,221.571,""
155683,20,0.00237,890.468,0.0005925,222.617,""
157666,20,0.00232193,895.122,0.000580482,223.78,""
158985,20,0.00229213,898.164,0.000573033,224.541,""
160762,20,0.00224836,902.197,0.000562089,225.549,""
162607,20,0.00220725,906.307,0.000551813,226.577,""
163878,20,0.00218059,909.096,0.000545148,227.274,""
165766,20,0.00214085,913.175,0.000535213,228.294,""
167160,20,0.00211147,916.139,0.000527867,229.035,""
168572,20,0.00208423,919.101,0.000521058,229.775,""
170293,20,0.00205151,922.66,0.000512879,230.665,""
172329,20,0.00201231,926.799,0.000503078,231.7,""
173968,20,0.00198212,930.072,0.00049553,232.518,""
176295,20,0.00194156,934.638,0.00048539,233.66,""
178207,20,0.00191035,938.321,0.000477587,234.58,""
180150,20,0.00187613,942,0.000469034,235.5,""
181526,20,0.00185438,944.566,0.000463595,236.141,""
183581,20,0.00182662,948.344,0.000456655,237.086,""
185085,20,0.00180301,951.074,0.000450752,237.769,""
187441,20,0.00177007,955.285,0.000442519,238.821,""
189225,20,0.00174648,958.42,0.000436621,239.605,""
191382,20,0.00171859,962.156,0.000429649,240.539,""
194373,20,0.00168018,967.237,0.000420045,241.809,""
196395,20,0.00165784,970.612,0.000414461,242.653,""
198390,20,0.00163498,973.898,0.000408745,243.474,""
200666,20,0.00160911,977.592,0.000402276,244.398,""
202809,20,0.00158608,981.016,0.000396521,245.254,""
204873,20,0.00156498,984.269,0.000391244,246.067,""
206598,20,0.00154985,986.956,0.000387463,246.739,""
208408,20,0.00153322,989.745,0.000383304,247.436,""
210427,20,0.00151573,992.821,0.000378933,248.205,""
212641,20,0.0014961,996.155,0.000374025,249.039,""
214262,20,0.00148205,998.568,0.000370512,249.642,""
216413,20,0.00146474,1001.74,0.000366185,250.435,""
218012,20,0.00145007,1004.07,0.000362518,251.017,""
220120,20,0.00143439,1007.11,0.000358598,251.778,""
221999,20,0.00141853,1009.79,0.000354632,252.447,""
223861,20,0.00140506,1012.42,0.000351266,253.105,""
226106,20,0.00139195,1015.56,0.000347988,253.889,""
228883,20,0.00137131,1019.39,0.000342826,254.848,""
230666,20,0.00135865,1021.82,0.000339664,255.456,""
232322,20,0.00134737,1024.06,0.000336843,256.016,""
234098,20,0.00133532,1026.45,0.00033383,256.612,""
236030,20,0.00132471,1029.02,0.000331177,257.254,""
238077,20,0.00131328,1031.72,0.00032832,257.93,""
240060,20,0.00130379,1034.31,0.000325947,258.579,""
241755,20,0.00129321,1036.52,0.000323301,259.129,""
243916,20,0.0012773,1039.3,0.000319325,259.824,""
245693,20,0.00126644,1041.56,0.000316609,260.389,""
247449,20,0.00125642,1043.77,0.000314104,260.943,""
249660,20,0.0012408,1046.54,0.000310201,261.634,""
251411,20,0.00122939,1048.7,0.000307347,262.175,""
253294,20,0.00121873,1051.01,0.000304682,262.752,""
254770,20,0.00120901,1052.8,0.000302252,263.199,""
257145,20,0.00119765,1055.66,0.000299413,263.914,""
258801,20,0.0011886,1057.63,0.000297149,264.408,""
260716,20,0.00117687,1059.9,0.000294217,264.975,""
263084,20,0.00116666,1062.68,0.000291665,265.669,""
265223,20,0.00115631,1065.16,0.000289076,266.291,""
267513,20,0.00114642,1067.8,0.000286606,266.95,""
269100,20,0.0011358,1069.61,0.00028395,267.403,""
271371,20,0.0011278,1072.18,0.000281949,268.046,""
273189,20,0.0011187,1074.22,0.000279674,268.556,""
275390,20,0.00110757,1076.67,0.000276892,269.168,""
277504,20,0.001097,1079,0.000274251,269.751,""
279693,20,0.00108639,1081.39,0.000271598,270.348,""
281897,20,0.00107863,1083.78,0.000269657,270.945,""
283533,20,0.00107271,1085.54,0.000268178,271.385,""
285607,20,0.00106341,1087.75,0.000265852,271.938,""
288298,20,0.00105308,1090.6,0.000263271,272.65,""
290584,20,0.00104414,1092.99,0.000261035,273.248,""
292471,20,0.00103682,1094.96,0.000259205,273.739,""
294644,20,0.0010287,1097.2,0.000257175,274.3,""
296596,20,0.00102107,1099.2,0.000255266,274.801,""
298821,20,0.0010114,1101.47,0.000252851,275.367,""
300921,20,0.00100462,1103.58,0.000251155,275.896,""
302987,20,0.0009982,1105.65,0.00024955,276.413,""
304804,20,0.000991371,1107.46,0.000247843,276.865,""
307369,20,0.000983216,1109.99,0.000245804,277.498,""
309067,20,0.000979361,1111.66,0.00024484,277.914,""
311144,20,0.000970433,1113.68,0.000242608,278.42,""
313039,20,0.000965035,1115.51,0.000241259,278.878,""
314771,20,0.000956389,1117.18,0.000239097,279.295,""
317356,20,0.000949467,1119.64,0.000237367,279.911,""
319224,20,0.000943583,1121.41,0.000235896,280.353,""
321028,20,0.000939312,1123.11,0.000234828,280.778,""
322424,20,0.0009358,1124.42,0.00023395,281.105,""
322454,20,0.000935772,1124.45,0.000233943,281.112,""
322462,20,0.00093578,1124.46,0.000233945,281.114,""
322462,20,NaN,NaN,NaN,NaN,""
322463,20,NaN,NaN,NaN,NaN,""
322464,20,NaN,NaN,NaN,NaN,""
322465,20,NaN,NaN,NaN,NaN,""
322466,20,NaN,NaN,NaN,NaN,""
322467,20,NaN,NaN,NaN,NaN,""
322468,20,NaN,NaN,NaN,NaN,""
322469,20,NaN,NaN,NaN,NaN,""
322469,20,NaN,NaN,NaN,NaN,"Ampoule removed"
322470,20,NaN,NaN,NaN,NaN,""