File: TAInstCalorimetry/DATA/peak_detection_example1.csv
Summary
Name,"JAA_CAL149.rslt"
Start time,2022 Okt 18 - 8:03
End time,2022 Okt 21 - 10:26
Operator,"JAA"
Results file path,"C:\Users\ga42fix\Desktop\AK Gädt\AK Gädt Kalo2\JAA\JAA_CAL149.rslt"
General Experiment Info
Bath temperature,20°C
,Sample - 213:4
Total mass,6g
Name,"JAA_CAL149"
,Component - OPC
Mass,4g
Name,"OPC"
ID,"Bernburg CEM I 42.5R 29.09.21"

"Time","Temperature","Heat flow","Heat","Normalized heat flow","Normalized heat","Time markers"
-3632.85,20,NaN,NaN,NaN,NaN,""
-3631.38,20,-8.88905e-07,NaN,-2.22226e-07,NaN,""
-3613.87,20,-6.1622e-07,NaN,-1.54055e-07,NaN,""
-3589.32,20,-5.13757e-07,NaN,-1.28439e-07,NaN,""
-3562.57,20,3.74134e-07,NaN,9.35335e-08,NaN,""
-3536.38,20,9.16486e-08,NaN,2.29121e-08,NaN,""
-3508.52,20,8.5962e-07,NaN,2.14905e-07,NaN,""
-3474.1,20,8.54016e-07,NaN,2.13504e-07,NaN,""
-3447.94,20,1.54387e-06,NaN,3.85966e-07,NaN,""
-3421.31,20,1.19285e-06,NaN,2.98212e-07,NaN,""
-3403.78,20,9.60419e-07,NaN,2.40105e-07,NaN,""
-3378.99,20,1.6977e-06,NaN,4.24424e-07,NaN,""
-3343.22,20,1.3892e-06,NaN,3.47301e-07,NaN,""
-3315.42,20,2.02961e-06,NaN,5.07402e-07,NaN,""
-3277.88,20,9.91489e-07,NaN,2.47872e-07,NaN,""
-3256.88,20,1.11287e-06,NaN,2.78216e-07,NaN,""
-3233.17,20,4.81593e-07,NaN,1.20398e-07,NaN,""
-3190.53,20,1.97856e-07,NaN,4.94639e-08,NaN,""
-3173.26,20,-6.22951e-07,NaN,-1.55738e-07,NaN,""
-3140.97,20,-3.33115e-07,NaN,-8.32787e-08,NaN,""
-3107.89,20,-1.41937e-06,NaN,-3.54842e-07,NaN,""
-3055.7,20,-2.23556e-06,NaN,-5.58889e-07,NaN,""
-3018.73,20,-2.12517e-06,NaN,-5.31292e-07,NaN,""
-2990.22,20,-2.47409e-06,NaN,-6.18523e-07,NaN,""
-2963.85,20,-2.18168e-06,NaN,-5.45421e-07,NaN,""
-2938.96,20,-1.80786e-06,NaN,-4.51965e-07,NaN,""
-2914.29,20,-2.47193e-06,NaN,-6.17982e-07,NaN,""
-2851.02,20,-1.17962e-06,NaN,-2.94904e-07,NaN,""
-2812.63,20,-2.53198e-07,NaN,-6.32995e-08,NaN,""
-2778.66,20,-3.79437e-07,NaN,-9.48592e-08,NaN,""
-2746.88,20,2.51976e-07,NaN,6.29939e-08,NaN,""
-2724.19,20,2.29102e-08,NaN,5.72754e-09,NaN,""
-2685.28,20,6.37944e-07,NaN,1.59486e-07,NaN,""
-2666.42,20,8.59643e-08,NaN,2.14911e-08,NaN,""
-2642.11,20,2.25369e-07,NaN,5.63423e-08,NaN,""
-2632.29,20,-3.45828e-07,NaN,-8.64569e-08,NaN,""
-2606.3,20,-1.06346e-07,NaN,-2.65864e-08,NaN,""
-2552.39,20,-5.5733e-07,NaN,-1.39333e-07,NaN,""
-2535.84,20,-1.79709e-07,NaN,-4.49271e-08,NaN,""
-2508.28,20,-6.40877e-07,NaN,-1.60219e-07,NaN,""
-2453.64,20,-7.11386e-07,NaN,-1.77846e-07,NaN,""
-2416.82,20,-1.23561e-06,NaN,-3.08901e-07,NaN,""
-2390.24,20,-8.51856e-07,NaN,-2.12964e-07,NaN,""
-2355.83,20,-1.37496e-06,NaN,-3.43741e-07,NaN,""
-2320.42,20,-8.81553e-07,NaN,-2.20388e-07,NaN,""
-2277.54,20,8.44326e-09,NaN,2.11081e-09,NaN,""
-2244.85,20,-1.19685e-07,NaN,-2.99212e-08,NaN,""
-2223.21,20,5.19713e-07,NaN,1.29928e-07,NaN,""
-2201.5,20,4.11351e-07,NaN,1.02838e-07,NaN,""
-2171.18,20,9.36488e-07,NaN,2.34122e-07,NaN,""
-2135.51,20,8.3218e-07,NaN,2.08045e-07,NaN,""
-2091.13,20,1.64548e-06,NaN,4.1137e-07,NaN,""
-2057.94,20,2.07442e-06,NaN,5.18604e-07,NaN,""
-2026.31,20,1.35892e-06,NaN,3.3973e-07,NaN,""
-1982.02,20,1.18063e-06,NaN,2.95158e-07,NaN,""
-1972.63,20,1.43534e-06,NaN,3.58836e-07,NaN,""
-1943.95,20,1.1607e-06,NaN,2.90176e-07,NaN,""
-1922.35,20,1.35414e-06,NaN,3.38534e-07,NaN,""
-1898.6,20,8.29562e-07,NaN,2.0739e-07,NaN,""
-1864.95,20,1.37563e-06,NaN,3.43906e-07,NaN,""
-1833.38,20,8.63791e-07,NaN,2.15948e-07,NaN,""
2220.48,20,NaN,NaN,NaN,NaN,"Reaction start. Measuring position. Signal correct"
2220.62,20,8.86434e-05,1.26085e-05,2.21609e-05,3.15212e-06,""
2545.37,20,0.112461,1.68707,0.0281152,0.421766,""
2598.5,20,0.239138,11.7435,0.0597844,2.93589,""
2656.62,20,0.251229,26.3478,0.0628072,6.58694,""
2751.97,20,0.203832,48.2229,0.0509579,12.0557,""
2860.12,20,0.148343,67.1573,0.0370858,16.7893,""
2953.5,20,0.111509,79.2087,0.0278772,19.8022,""
3055.12,20,0.0819519,88.9569,0.020488,22.2392,""
3194.43,20,0.0545702,98.3205,0.0136425,24.5801,""
3375.08,20,0.0335454,106.092,0.00838635,26.523,""
3585.34,20,0.0205365,111.626,0.00513413,27.9065,""
3867.73,20,0.0122987,116.101,0.00307467,29.0252,""
4224.55,20,0.00799859,119.606,0.00199965,29.9014,""
4819.56,20,0.00535991,123.445,0.00133998,30.8612,""
5734.01,20,0.00375882,127.519,0.000939706,31.8799,""
7079.76,20,0.00264585,131.739,0.000661463,32.9347,""
8482.62,20,0.00203108,134.979,0.000507771,33.7447,""
9636.18,20,0.00171398,137.129,0.000428495,34.2821,""
11172.7,20,0.00142275,139.525,0.000355687,34.8812,""
12620.6,20,0.0012249,141.435,0.000306225,35.3587,""
13992.6,20,0.00108432,143.016,0.000271079,35.7539,""
15258.3,20,0.000985753,144.323,0.000246438,36.0807,""
16738.3,20,0.000952909,145.731,0.000238227,36.4326,""
18226.8,20,0.000830835,147.042,0.000207709,36.7604,""
19323.7,20,0.000778233,147.923,0.000194558,36.9807,""
20572,20,0.00072651,148.861,0.000181627,37.2152,""
21590.1,20,0.0006901,149.581,0.000172525,37.3952,""
22651.7,20,0.000656272,150.295,0.000164068,37.5736,""
23473,20,0.000631273,150.823,0.000157818,37.7057,""
24448.6,20,0.000607494,151.427,0.000151874,37.8567,""
25520,20,0.000584385,152.065,0.000146096,38.0161,""
26323.8,20,0.000566938,152.527,0.000141735,38.1318,""
27535.3,20,0.000545678,153.201,0.00013642,38.3003,""
28650.8,20,0.000528642,153.801,0.000132161,38.4502,""
29668,20,0.000514857,154.331,0.000128714,38.5828,""
30889.9,20,0.000499359,154.95,0.00012484,38.7376,""
32655,20,0.000478076,155.813,0.000119519,38.9532,""
33738.1,20,0.000468098,156.325,0.000117025,39.0813,""
35031.8,20,0.000455628,156.923,0.000113907,39.2307,""
36418.5,20,0.000443937,157.545,0.000110984,39.3863,""
38206.6,20,0.000437411,158.331,0.000109353,39.5829,""
39473.4,20,0.000437184,158.886,0.000109296,39.7214,""
40846.7,20,0.000437885,159.487,0.000109471,39.8717,""
42382.1,20,0.000438314,160.16,0.000109579,40.0401,""
43728.9,20,0.000440239,160.752,0.00011006,40.188,""
44843.3,20,0.0004429,161.244,0.000110725,40.311,""
46299,20,0.000443477,161.889,0.000110869,40.4723,""
47575.3,20,0.000446287,162.457,0.000111572,40.6143,""
49116.9,20,0.000447654,163.146,0.000111913,40.7864,""
50156,20,0.000448964,163.611,0.000112241,40.9028,""
51647,20,0.000449479,164.281,0.00011237,41.0703,""
52911.2,20,0.000451172,164.85,0.000112793,41.2126,""
54300.1,20,0.000451853,165.477,0.000112963,41.3692,""
55404.7,20,0.000452871,165.977,0.000113218,41.4941,""
56973.8,20,0.000453239,166.688,0.00011331,41.672,""
58389,20,0.000454533,167.33,0.000113633,41.8326,""
59899.1,20,0.000455766,168.018,0.000113942,42.0045,""
61375.6,20,0.000457621,168.692,0.000114405,42.1731,""
62527,20,0.000458421,169.219,0.000114605,42.3048,""
63605.3,20,0.000459096,169.714,0.000114774,42.4284,""
65013.6,20,0.000459409,170.36,0.000114852,42.5901,""
66647.4,20,0.000460388,171.112,0.000115097,42.778,""
68299.5,20,0.000461812,171.874,0.000115453,42.9685,""
69781,20,0.000462164,172.559,0.000115541,43.1396,""
70913.8,20,0.000463092,173.083,0.000115773,43.2706,""
72120.4,20,0.000463365,173.641,0.000115841,43.4104,""
73461.4,20,0.000465372,174.264,0.000116343,43.5661,""
74800.5,20,0.000464171,174.887,0.000116043,43.7218,""
76466.5,20,0.000465006,175.661,0.000116252,43.9152,""
78365.2,20,0.0004657,176.544,0.000116425,44.1361,""
80117.5,20,0.000466986,177.363,0.000116747,44.3406,""
81374.9,20,0.000465691,177.948,0.000116423,44.4871,""
82733.6,20,0.000464067,178.58,0.000116017,44.645,""
84464.8,20,0.000464655,179.384,0.000116164,44.8459,""
86052.5,20,0.000465234,180.122,0.000116309,45.0306,""
87247.8,20,0.000465239,180.679,0.00011631,45.1696,""
88625.1,20,0.000465371,181.319,0.000116343,45.3297,""
89919.2,20,0.000465153,181.921,0.000116288,45.4803,""
91333.5,20,0.000465488,182.579,0.000116372,45.6448,""
92589.8,20,0.00046599,183.164,0.000116497,45.791,""
93917.7,20,0.000466541,183.783,0.000116635,45.9457,""
95489.7,20,0.00046701,184.516,0.000116752,46.129,""
97284.4,20,0.000466879,185.354,0.00011672,46.3384,""
98459.2,20,0.000466705,185.902,0.000116676,46.4755,""
99712.2,20,0.000466644,186.486,0.000116661,46.6216,""
101089,20,0.000466974,187.129,0.000116744,46.7824,""
102433,20,0.000467079,187.757,0.00011677,46.9392,""
104296,20,0.000466193,188.626,0.000116548,47.1565,""
105886,20,0.000465652,189.366,0.000116413,47.3416,""
107195,20,0.000465481,189.976,0.00011637,47.4939,""
108236,20,0.000466102,190.46,0.000116526,47.6151,""
109744,20,0.000466083,191.164,0.000116521,47.7909,""
111137,20,0.000466807,191.813,0.000116702,47.9531,""
112271,20,0.00046739,192.343,0.000116848,48.0857,""
114013,20,0.000467648,193.157,0.000116912,48.2892,""
115440,20,0.00046875,193.825,0.000117187,48.4563,""
116835,20,0.000468733,194.479,0.000117183,48.6197,""
118320,20,0.000470108,195.175,0.000117527,48.7938,""
119680,20,0.000471272,195.815,0.000117818,48.9538,""
121052,20,0.000472387,196.463,0.000118097,49.1157,""
122321,20,0.000474751,197.065,0.000118688,49.2662,""
123615,20,0.000474769,197.679,0.000118692,49.4198,""
125368,20,0.000475719,198.512,0.00011893,49.628,""
127234,20,0.000476751,199.4,0.000119188,49.8499,""
128603,20,0.000477413,200.053,0.000119353,50.0132,""
130087,20,0.000479943,200.763,0.000119986,50.1909,""
131181,20,0.000484454,201.291,0.000121114,50.3227,""
132431,20,0.000486235,201.898,0.000121559,50.4744,""
133411,20,0.000489364,202.376,0.000122341,50.594,""
135176,20,0.000494375,203.243,0.000123594,50.8108,""
136752,20,0.000500066,204.027,0.000125017,51.0068,""
137976,20,0.000503533,204.641,0.000125883,51.1602,""
139115,20,0.000511012,205.219,0.000127753,51.3047,""
140208,20,0.000518166,205.781,0.000129542,51.4452,""
141476,20,0.000526365,206.443,0.000131591,51.6109,""
142795,20,0.000537199,207.145,0.0001343,51.7862,""
144390,20,0.000554254,208.014,0.000138564,52.0035,""
145629,20,0.000567303,208.708,0.000141826,52.1769,""
146913,20,0.00058569,209.447,0.000146422,52.3618,""
147840,20,0.00059948,209.996,0.00014987,52.4991,""
148805,20,0.000616842,210.584,0.000154211,52.6459,""
149818,20,0.00063732,211.219,0.00015933,52.8048,""
150973,20,0.000664981,211.971,0.000166245,52.9929,""
152658,20,0.000710471,213.129,0.000177618,53.2822,""
154635,20,0.00077745,214.597,0.000194363,53.6493,""
156148,20,0.000837899,215.817,0.000209475,53.9542,""
157658,20,0.000908788,217.135,0.000227197,54.2836,""
159375,20,0.00100327,218.774,0.000250817,54.6935,""
161401,20,0.00113437,220.937,0.000283592,55.2343,""
163253,20,0.00127643,223.166,0.000319107,55.7916,""
164982,20,0.00142701,225.499,0.000356753,56.3749,""
167264,20,0.00165185,229.008,0.000412961,57.2519,""
169177,20,0.0018666,232.371,0.00046665,58.0928,""
171162,20,0.00210999,236.314,0.000527498,59.0786,""
172943,20,0.00234538,240.281,0.000586344,60.0702,""
174767,20,0.00259858,244.787,0.000649644,61.1968,""
176614,20,0.00286756,249.833,0.00071689,62.4582,""
177851,20,0.00305122,253.495,0.000762806,63.3738,""
179697,20,0.00332874,259.382,0.000832185,64.8455,""
181729,20,0.00363463,266.458,0.000908656,66.6146,""
183122,20,0.0038423,271.665,0.000960575,67.9163,""
184565,20,0.00405673,277.364,0.00101418,69.341,""
185853,20,0.00424689,282.713,0.00106172,70.6783,""
187378,20,0.00446387,289.353,0.00111597,72.3382,""
189361,20,0.00473652,298.482,0.00118413,74.6204,""
190841,20,0.00493121,305.633,0.0012328,76.4083,""
192658,20,0.00515836,314.803,0.00128959,78.7008,""
194743,20,0.00540465,325.819,0.00135116,81.4547,""
195941,20,0.00553795,332.375,0.00138449,83.0937,""
197170,20,0.00566915,339.262,0.00141729,84.8154,""
198432,20,0.00579684,346.498,0.00144921,86.6246,""
200111,20,0.00595809,356.369,0.00148952,89.0922,""
201854,20,0.00611097,366.891,0.00152774,91.7227,""
203268,20,0.0062256,375.613,0.0015564,93.9032,""
205138,20,0.00636238,387.38,0.0015906,96.8451,""
206776,20,0.00646985,397.894,0.00161746,99.4736,""
208456,20,0.00656479,408.845,0.0016412,102.211,""
209814,20,0.0066344,417.808,0.0016586,104.452,""
211567,20,0.00670092,429.5,0.00167523,107.375,""
212991,20,0.00674997,439.08,0.00168749,109.77,""
214698,20,0.00679218,450.643,0.00169804,112.661,""
216214,20,0.00681599,460.96,0.001704,115.24,""
217881,20,0.00682956,472.33,0.00170739,118.083,""
219402,20,0.00682783,482.721,0.00170696,120.68,""
221583,20,0.00681221,497.596,0.00170305,124.399,""
223137,20,0.00679056,508.172,0.00169764,127.043,""
224238,20,0.006771,515.636,0.00169275,128.909,""
225760,20,0.00674255,525.918,0.00168564,131.48,""
227349,20,0.006691,536.588,0.00167275,134.147,""
228702,20,0.00664787,545.611,0.00166197,136.403,""
230312,20,0.00658951,556.264,0.00164738,139.066,""
232357,20,0.00650608,569.661,0.00162652,142.415,""
234660,20,0.00639889,584.52,0.00159972,146.13,""
237166,20,0.00626599,600.393,0.0015665,150.098,""
238416,20,0.00619144,608.18,0.00154786,152.045,""
240093,20,0.00608268,618.472,0.00152067,154.618,""
241807,20,0.00596224,628.797,0.00149056,157.199,""
243362,20,0.00584489,637.974,0.00146122,159.494,""
244770,20,0.00573185,646.125,0.00143296,161.531,""
246505,20,0.00558719,655.95,0.0013968,163.988,""
248119,20,0.00543894,664.849,0.00135974,166.212,""
250206,20,0.00523851,675.99,0.00130963,168.997,""
251920,20,0.00506491,684.816,0.00126623,171.204,""
253951,20,0.00485237,694.89,0.00121309,173.722,""
255795,20,0.00465966,703.662,0.00116492,175.916,""
257397,20,0.00449598,710.996,0.001124,177.749,""
259200,20,0.00431395,718.94,0.00107849,179.735,""
260349,20,0.00420167,723.829,0.00105042,180.957,""
261550,20,0.00408885,728.808,0.00102221,182.202,""
263075,20,0.00395066,734.936,0.000987666,183.734,""
264105,20,0.00386096,738.962,0.000965239,184.74,""
264136,20,0.00385817,739.081,0.000964544,184.77,""
264146,20,0.00385732,739.118,0.000964331,184.779,""
264146,20,NaN,NaN,NaN,NaN,""
264147,20,NaN,NaN,NaN,NaN,""
264148,20,NaN,NaN,NaN,NaN,""
264149,20,NaN,NaN,NaN,NaN,""
264150,20,NaN,NaN,NaN,NaN,""
264151,20,NaN,NaN,NaN,NaN,"Ampoule removed"
264151,20,NaN,NaN,NaN,NaN,""
264152,20,NaN,NaN,NaN,NaN,""