File: TAInstCalorimetry/DATA/peak_detection_example7.csv
"Time","Temperature [AmbientT(Therm3T)]","Temperature [Temperature]","Heat flow [Signal]","Heat [Signal]","Normalized heat flow [Signal]","Normalized heat [Signal]","Time markers"
-2394.9,21.9503,20.0002,NaN,NaN,NaN,NaN,""
-2394.23,21.9515,20.0002,-5.26514e-08,NaN,-1.20181e-08,NaN,""
-2374.83,21.985,20.0003,3.19484e-07,NaN,7.29248e-08,NaN,""
-2361.25,22.0491,20.0003,-1.19996e-07,NaN,-2.73901e-08,NaN,""
-2349.66,22.1416,20.0001,-4.95203e-07,NaN,-1.13034e-07,NaN,""
-2335.77,22.1058,20,-4.92881e-07,NaN,-1.12504e-07,NaN,""
-2324.32,22.0764,19.9999,1.21236e-06,NaN,2.76731e-07,NaN,""
-2321.15,22.068,19.9999,3.53435e-07,NaN,8.06746e-08,NaN,""
-2317.98,22.0592,19.9998,-5.05486e-07,NaN,-1.15381e-07,NaN,""
-2301.92,22.0147,19.9999,-4.31147e-07,NaN,-9.84129e-08,NaN,""
-2285.86,21.9701,20.0001,-3.56808e-07,NaN,-8.14444e-08,NaN,""
-2269.53,21.9713,20.0001,2.99188e-07,NaN,6.82921e-08,NaN,""
-2252.35,22.0074,20.0001,9.89315e-07,NaN,2.25819e-07,NaN,""
-2239.98,22.0165,20,5.14832e-08,NaN,1.17515e-08,NaN,""
-2227.61,22.0204,20,-8.86348e-07,NaN,-2.02316e-07,NaN,""
-2208.16,22.0211,19.9999,-7.52695e-07,NaN,-1.71809e-07,NaN,""
-2195.46,21.9956,19.9999,-6.65456e-07,NaN,-1.51896e-07,NaN,""
-2185.42,21.9863,20,-5.96422e-07,NaN,-1.36138e-07,NaN,""
-2158.12,21.9907,20.0001,-1.92119e-06,NaN,-4.38528e-07,NaN,""
-2149.85,21.9921,20.0002,-1.13211e-06,NaN,-2.58413e-07,NaN,""
-2142.53,21.9933,20.0002,-8.92406e-08,NaN,-2.03699e-08,NaN,""
-2124.14,21.9963,20.0004,-1.48027e-06,NaN,-3.37883e-07,NaN,""
-2111.02,21.9874,20.0003,-1.04459e-06,NaN,-2.38437e-07,NaN,""
-2105.77,21.9832,20.0003,-2.29156e-08,NaN,-5.23068e-09,NaN,""
-2070,21.955,20.0003,-4.8545e-07,NaN,-1.10808e-07,NaN,""
-2069.72,21.9548,20.0003,-4.89112e-07,NaN,-1.11644e-07,NaN,""
-2060.79,21.9662,20.0001,-5.30828e-07,NaN,-1.21166e-07,NaN,""
-2051.86,21.9776,19.9999,-2.66196e-07,NaN,-6.07616e-08,NaN,""
-2041.61,21.9802,19.9999,3.77782e-08,NaN,8.62319e-09,NaN,""
-2022.15,21.9781,20,5.25059e-07,NaN,1.19849e-07,NaN,""
-2001.21,21.9758,20.0001,-1.50846e-07,NaN,-3.44319e-08,NaN,""
-1955.94,21.9709,19.9998,-1.61209e-06,NaN,-3.67974e-07,NaN,""
-1953.44,21.9706,19.9999,-1.69283e-06,NaN,-3.86403e-07,NaN,""
-1933.21,21.9684,20.0001,9.73058e-07,NaN,2.22109e-07,NaN,""
-1915.9,21.9665,20.0003,9.47747e-08,NaN,2.16331e-08,NaN,""
-1901.27,21.9649,20.0001,-6.474e-07,NaN,-1.47775e-07,NaN,""
-1888.68,21.9636,20,-6.77771e-07,NaN,-1.54707e-07,NaN,""
-1855.86,21.96,20,-7.56937e-07,NaN,-1.72777e-07,NaN,""
-1842.22,21.9585,20,-1.16578e-06,NaN,-2.66099e-07,NaN,""
-1826.07,21.9629,20,-1.64988e-06,NaN,-3.766e-07,NaN,""
-1785.54,21.9741,20,-1.22499e-06,NaN,-2.79615e-07,NaN,""
-1745,21.9753,19.9998,-8.00103e-07,NaN,-1.8263e-07,NaN,""
-1713.76,21.9488,19.9998,-1.91857e-06,NaN,-4.3793e-07,NaN,""
-1700.05,21.9371,19.9997,-6.73479e-07,NaN,-1.53727e-07,NaN,""
-1691.49,21.9469,19.9997,-4.3311e-07,NaN,-9.8861e-08,NaN,""
-1678.03,21.9623,19.9997,-6.13579e-07,NaN,-1.40055e-07,NaN,""
-1662.94,21.9795,19.9996,-1.25334e-06,NaN,-2.86086e-07,NaN,""
-1655.96,21.9727,19.9996,-9.1352e-07,NaN,-2.08519e-07,NaN,""
-1642.23,21.9593,19.9998,3.9974e-07,NaN,9.1244e-08,NaN,""
-1627.49,21.9533,20.0001,4.19257e-07,NaN,9.5699e-08,NaN,""
-1611.79,21.9601,20.0001,4.40052e-07,NaN,1.00446e-07,NaN,""
-1594.37,21.9622,20,1.05053e-06,NaN,2.39791e-07,NaN,""
-1576.72,21.9479,20,2.37944e-06,NaN,5.43126e-07,NaN,""
-1552.43,21.9281,19.9999,2.09825e-06,NaN,4.78944e-07,NaN,""
-1528.13,21.9325,19.9998,1.81707e-06,NaN,4.14762e-07,NaN,""
-1510.77,21.9269,19.9997,1.85614e-06,NaN,4.23678e-07,NaN,""
-1483.08,21.8705,19.9996,2.1255e-06,NaN,4.85163e-07,NaN,""
-1477.95,21.8777,19.9996,2.17534e-06,NaN,4.9654e-07,NaN,""
-1461.38,21.9009,19.9999,2.33652e-06,NaN,5.3333e-07,NaN,""
-1448.79,21.9064,20,9.71069e-07,NaN,2.21655e-07,NaN,""
-1432.03,21.8985,19.9999,-8.47273e-07,NaN,-1.93397e-07,NaN,""
-1417.63,21.8917,19.9999,5.39912e-08,NaN,1.23239e-08,NaN,""
-1400.33,21.8878,19.9998,-6.05456e-07,NaN,-1.38201e-07,NaN,""
-1383.03,21.9047,19.9998,-1.2649e-06,NaN,-2.88725e-07,NaN,""
-1368.21,21.9192,19.9998,-1.2687e-06,NaN,-2.89591e-07,NaN,""
-1358.14,21.9104,19.9998,-1.80182e-06,NaN,-4.1128e-07,NaN,""
-1347.82,21.9013,19.9998,-2.95472e-06,NaN,-6.7444e-07,NaN,""
-1333.6,21.9188,19.9998,-2.29806e-06,NaN,-5.24552e-07,NaN,""
-1327.93,21.9393,19.9998,-2.0361e-06,NaN,-4.64757e-07,NaN,""
-1298.7,21.9381,19.9998,-6.85772e-07,NaN,-1.56533e-07,NaN,""
-1281.04,21.9373,19.9999,-2.15782e-06,NaN,-4.9254e-07,NaN,""
-1268.41,21.9368,19.9999,-2.31827e-06,NaN,-5.29165e-07,NaN,""
-1261.23,21.9365,19.9999,-1.64105e-06,NaN,-3.74583e-07,NaN,""
-1232.44,21.9381,19.9998,-3.31258e-06,NaN,-7.56123e-07,NaN,""
-1203.65,21.9404,19.9998,-4.9841e-06,NaN,-1.13766e-06,NaN,""
-1178.83,21.9424,19.9998,-2.46197e-06,NaN,-5.61966e-07,NaN,""
-1170.6,21.9431,19.9998,-3.47076e-06,NaN,-7.9223e-07,NaN,""
-1164.78,21.9645,19.9998,-3.78972e-06,NaN,-8.65036e-07,NaN,""
-1149.65,22.0203,19.9998,-3.172e-06,NaN,-7.24036e-07,NaN,""
-1144.15,22.0143,19.9998,-2.94743e-06,NaN,-6.72777e-07,NaN,""
-1136.72,22.0063,19.9999,-2.68035e-06,NaN,-6.11813e-07,NaN,""
-1129.3,21.9983,20.0001,-2.41912e-06,NaN,-5.52185e-07,NaN,""
-1114.97,21.9903,20,-1.91503e-06,NaN,-4.37122e-07,NaN,""
-1093.82,21.9937,20,7.71135e-07,NaN,1.76018e-07,NaN,""
-1089.12,21.9945,20,1.54755e-06,NaN,3.53241e-07,NaN,""
-1060.07,21.9991,20,1.85409e-06,NaN,4.23213e-07,NaN,""
-1031.02,22.0038,20,2.33634e-06,NaN,5.33289e-07,NaN,""
-1015.93,22.0015,20,3.64937e-06,NaN,8.32998e-07,NaN,""
-1000.84,21.9908,20,4.58977e-06,NaN,1.04765e-06,NaN,""
-980.596,21.9764,20,3.06777e-06,NaN,7.00245e-07,NaN,""
-961.323,21.9626,20.0001,4.77411e-06,NaN,1.08973e-06,NaN,""
-956.898,21.9595,20.0001,4.00191e-06,NaN,9.1347e-07,NaN,""
-947.854,21.9993,20.0001,2.42354e-06,NaN,5.53194e-07,NaN,""
-943.44,22.0187,20.0001,2.87109e-06,NaN,6.55351e-07,NaN,""
-935.071,22.0341,20.0001,3.71968e-06,NaN,8.49047e-07,NaN,""
-926.702,22.0247,20,3.75268e-06,NaN,8.5658e-07,NaN,""
-916.178,22.0146,20,2.87521e-06,NaN,6.56291e-07,NaN,""
-893.979,22.0118,19.9999,1.02426e-06,NaN,2.33795e-07,NaN,""
-891.664,22.0115,19.9998,1.04936e-06,NaN,2.39524e-07,NaN,""
-870.757,22.0089,20.0003,1.276e-06,NaN,2.91257e-07,NaN,""
-870.402,22.0089,20.0003,1.27985e-06,NaN,2.92137e-07,NaN,""
-858.521,22.0509,20.0003,1.40865e-06,NaN,3.21535e-07,NaN,""
-850.144,22.0645,20.0003,1.32064e-06,NaN,3.01447e-07,NaN,""
-798.229,22.0106,20.0001,7.75215e-07,NaN,1.76949e-07,NaN,""
-772.503,21.9918,20,1.7623e-06,NaN,4.0226e-07,NaN,""
-746.777,21.9946,19.9999,2.74939e-06,NaN,6.27571e-07,NaN,""
-728.791,21.9966,19.9999,9.17006e-07,NaN,2.09314e-07,NaN,""
-713.416,21.9982,19.9999,1.97972e-06,NaN,4.51889e-07,NaN,""
-695.083,21.9999,19.9999,8.17345e-07,NaN,1.86566e-07,NaN,""
-676.75,21.9828,19.9999,-3.45033e-07,NaN,-7.87568e-08,NaN,""
-632.659,21.9415,19.9999,6.57881e-07,NaN,1.50167e-07,NaN,""
-599.869,21.991,19.9999,-5.69452e-07,NaN,-1.29982e-07,NaN,""
-595.229,21.999,19.9999,-7.43125e-07,NaN,-1.69624e-07,NaN,""
-575.884,22.0015,19.9999,NaN,NaN,NaN,NaN,""
-523.112,21.9856,19.9999,NaN,NaN,NaN,NaN,""
-470.34,21.9654,19.9999,NaN,NaN,NaN,NaN,""
-419.132,21.9353,19.9999,NaN,NaN,NaN,NaN,""
-395.101,21.9971,19.9999,NaN,NaN,NaN,NaN,""
-372.234,21.8411,19.9999,NaN,NaN,NaN,NaN,""
-349.66,21.9777,20,NaN,NaN,NaN,NaN,""
-315.523,21.9713,20,NaN,NaN,NaN,NaN,""
-311.651,21.9943,20,NaN,NaN,NaN,NaN,""
-298.898,22.0699,19.9998,NaN,NaN,NaN,NaN,""
-267.138,22.0158,19.9995,NaN,NaN,NaN,NaN,""
-240.881,22.0255,19.9997,NaN,NaN,NaN,NaN,""
-227.916,22.0303,19.9999,NaN,NaN,NaN,NaN,""
-209.824,22.037,20.0003,NaN,NaN,NaN,NaN,""
-186.006,22.0661,20,NaN,NaN,NaN,NaN,""
-162.398,22.096,19.9998,NaN,NaN,NaN,NaN,""
-154.142,22.0467,19.9998,NaN,NaN,NaN,NaN,""
-145.886,21.9974,19.9998,NaN,NaN,NaN,NaN,""
-104.47,22.0172,19.9999,NaN,NaN,NaN,NaN,""
-77.3198,21.9211,20,NaN,NaN,NaN,NaN,""
-55.3325,22.006,20.0001,NaN,NaN,NaN,NaN,""
-33.3452,22.0909,20.0001,NaN,NaN,NaN,NaN,""
1.26222,22.137,20,NaN,NaN,NaN,NaN,""
47.8765,22.0881,20,NaN,NaN,NaN,NaN,""
65.513,22.0276,19.9999,NaN,NaN,NaN,NaN,""
77.1082,22.0182,19.9999,NaN,NaN,NaN,NaN,""
101.701,22.0575,19.9997,NaN,NaN,NaN,NaN,""
132.43,22.0613,19.9995,NaN,NaN,NaN,NaN,""
139.165,22.1539,19.9995,NaN,NaN,NaN,NaN,""
145.899,22.2464,19.9996,NaN,NaN,NaN,NaN,""
161.891,22.2754,19.9998,NaN,NaN,NaN,NaN,""
180.166,22.0976,20,NaN,NaN,NaN,NaN,""
192.771,22.0482,20,NaN,NaN,NaN,NaN,""
207.163,22.0942,20,NaN,NaN,NaN,NaN,""
252.608,22.1033,20.0001,NaN,NaN,NaN,NaN,""
257.917,22.1064,20.0001,NaN,NaN,NaN,NaN,""
289.719,22.125,19.9997,NaN,NaN,NaN,NaN,""
309.31,22.0963,19.9998,NaN,NaN,NaN,NaN,""
325.436,22.0707,19.9999,NaN,NaN,NaN,NaN,""
349.652,22.0627,20,NaN,NaN,NaN,NaN,""
375.02,22.0545,19.9998,NaN,NaN,NaN,NaN,""
400.387,22.0661,19.9998,NaN,NaN,NaN,NaN,""
430.957,22.08,20.0001,NaN,NaN,NaN,NaN,""
465.986,22.0486,20,NaN,NaN,NaN,NaN,""
480.446,22.0002,20,NaN,NaN,NaN,NaN,""
501.015,22.0228,19.9999,NaN,NaN,NaN,NaN,""
520.827,22.0447,19.9999,NaN,NaN,NaN,NaN,""
555.258,22.0859,19.9999,NaN,NaN,NaN,NaN,""
595.906,22.0515,19.9999,NaN,NaN,NaN,NaN,""
604.472,22.0528,19.9999,NaN,NaN,NaN,NaN,""
645.821,22.0592,20.0005,NaN,NaN,NaN,NaN,""
653.877,22.0546,20.0003,NaN,NaN,NaN,NaN,""
661.934,22.0432,20,NaN,NaN,NaN,NaN,""
692.372,21.9999,19.9996,NaN,NaN,NaN,NaN,""
714.073,21.9977,19.9997,NaN,NaN,NaN,NaN,""
735.775,22.0089,19.9998,NaN,NaN,NaN,NaN,""
763.083,22.0223,19.9998,NaN,NaN,NaN,NaN,""
790.391,22.0267,19.9997,NaN,NaN,NaN,NaN,""
811.469,22.0301,20.0001,NaN,NaN,NaN,NaN,""
843.891,22.0353,19.9997,NaN,NaN,NaN,NaN,""
862.463,22.0383,19.9998,NaN,NaN,NaN,NaN,""
883.977,21.9846,20,NaN,NaN,NaN,NaN,""
893.01,21.8717,20.0001,NaN,NaN,NaN,NaN,""
907.602,21.9534,20.0001,NaN,NaN,NaN,NaN,""
922.194,22.0351,20,NaN,NaN,NaN,NaN,""
981.201,22.0943,19.9997,NaN,NaN,NaN,NaN,""
1012.99,22.0625,19.9997,NaN,NaN,NaN,NaN,""
1044.78,22.0306,19.9997,NaN,NaN,NaN,NaN,""
1086.56,22.0299,19.9998,NaN,NaN,NaN,NaN,""
1106.91,22.0295,20.0002,NaN,NaN,NaN,NaN,""
1118.68,22.026,20.0001,NaN,NaN,NaN,NaN,""
1135.95,22.0209,19.9997,NaN,NaN,NaN,NaN,""
1174.29,22.0095,19.9998,NaN,NaN,NaN,NaN,""
1196.57,22.014,19.9999,NaN,NaN,NaN,NaN,""
1240.1,22.0228,20.0002,NaN,NaN,NaN,NaN,""
1259.53,22.0267,19.9997,NaN,NaN,NaN,NaN,""
1285.95,22.032,19.9999,NaN,NaN,NaN,NaN,""
1312.41,22.0373,19.9996,NaN,NaN,NaN,NaN,""
1346.38,22.0441,19.9999,NaN,NaN,NaN,NaN,""
1368.25,22.0283,19.9999,NaN,NaN,NaN,NaN,""
1392.57,22.0108,19.9998,NaN,NaN,NaN,NaN,""
1421.83,22.0028,19.9997,NaN,NaN,NaN,NaN,""
1480.92,21.9865,19.9997,NaN,NaN,NaN,NaN,""
1493.25,22.0147,19.9998,NaN,NaN,NaN,NaN,""
1503.01,22.0292,19.9998,NaN,NaN,NaN,NaN,""
1552.23,21.9913,20.0002,NaN,NaN,NaN,NaN,""
1572.17,22.0537,20.0002,NaN,NaN,NaN,NaN,""
1592.11,22.116,19.9998,NaN,NaN,NaN,NaN,""
1605.1,22.0948,19.9998,NaN,NaN,NaN,NaN,""
1618.1,22.0736,19.9999,NaN,NaN,NaN,NaN,""
1638.48,22.1442,20.0002,NaN,NaN,NaN,NaN,""
1649.66,22.1047,20.0003,NaN,NaN,NaN,NaN,""
1656.37,22.0989,20.0003,NaN,NaN,NaN,NaN,""
1678.5,22.11,20.0002,NaN,NaN,NaN,NaN,""
1723.62,22.0513,20.0001,NaN,NaN,NaN,NaN,""
1749.06,22.039,20.0001,NaN,NaN,NaN,NaN,""
1846.6,22.015,20.0003,NaN,NaN,NaN,NaN,""
1863.38,22.0109,19.9999,NaN,NaN,NaN,NaN,""
1914.99,21.9982,19.9999,NaN,NaN,NaN,NaN,""
1953.02,21.9998,19.9998,NaN,NaN,NaN,NaN,""
1973.74,22.0006,19.9995,NaN,NaN,NaN,NaN,""
2034.04,22.0031,19.9998,NaN,NaN,NaN,NaN,""
2082.83,22.0051,19.9999,NaN,NaN,NaN,NaN,""
2112.85,21.9926,20.0001,NaN,NaN,NaN,NaN,""
2139.1,21.9816,20.0004,NaN,NaN,NaN,NaN,""
2178.65,21.9651,20,NaN,NaN,NaN,NaN,""
2197.64,22.0671,19.9999,NaN,NaN,NaN,NaN,""
2205.37,22.1211,19.9998,NaN,NaN,NaN,NaN,""
2213.1,22.1751,19.9998,NaN,NaN,NaN,NaN,""
2224.27,21.9939,19.9998,NaN,NaN,NaN,NaN,""
2234.82,22.0506,19.9998,NaN,NaN,NaN,NaN,""
2249.28,22.1615,19.9998,NaN,NaN,NaN,NaN,""
2288.82,22.0825,19.9999,NaN,NaN,NaN,NaN,""
2312.27,22.0775,20,NaN,NaN,NaN,NaN,""
2326.8,22.0846,20.0002,NaN,NaN,NaN,NaN,""
2380.65,22.0611,20.0005,NaN,NaN,NaN,NaN,""
2414.66,22.0462,19.9999,NaN,NaN,NaN,NaN,""
2446.26,22.0324,20.0002,NaN,NaN,NaN,NaN,""
2472.86,22.0491,20.0003,NaN,NaN,NaN,NaN,""
2504.41,22.0688,19.9999,NaN,NaN,NaN,NaN,""
2505.29,22.0694,19.9999,NaN,NaN,NaN,NaN,""
2525.31,22.0027,20,NaN,NaN,NaN,NaN,""
2542.07,22.1017,20.0001,NaN,NaN,NaN,NaN,""
2550.53,22.1364,20,NaN,NaN,NaN,NaN,""
2563.98,22.1909,19.9998,NaN,NaN,NaN,NaN,""
2575.71,22.1425,19.9997,NaN,NaN,NaN,NaN,""
2583.66,22.1114,19.9997,NaN,NaN,NaN,NaN,""
2605.1,22.0327,19.9999,NaN,NaN,NaN,NaN,""
2637.56,22.0271,20.0001,NaN,NaN,NaN,NaN,""
2662.51,22.0284,19.9999,NaN,NaN,NaN,NaN,""
2692.5,22.0457,19.9997,NaN,NaN,NaN,NaN,""
2717.9,22.0486,19.9998,NaN,NaN,NaN,NaN,""
2751.4,22.0353,19.9999,NaN,NaN,NaN,NaN,""
2766.54,22.0501,19.9998,NaN,NaN,NaN,NaN,""
2781.68,22.0649,19.9997,NaN,NaN,NaN,NaN,""
2797.2,22.0196,19.9996,NaN,NaN,NaN,NaN,""
2816.18,22.0133,19.9995,NaN,NaN,NaN,NaN,""
2835.16,22.0071,19.9996,NaN,NaN,NaN,NaN,""
2857.2,22.0642,19.9997,NaN,NaN,NaN,NaN,""
2870.41,21.9135,19.9998,NaN,NaN,NaN,NaN,""
2891.12,22.0743,19.9999,NaN,NaN,NaN,NaN,""
2911.38,22.1214,20,NaN,NaN,NaN,NaN,""
2927.42,22.1269,19.9999,NaN,NaN,NaN,NaN,""
2935.54,22.0847,19.9998,NaN,NaN,NaN,NaN,""
2961.97,22.1183,19.9996,NaN,NaN,NaN,NaN,""
2978.83,22.0868,19.9995,NaN,NaN,NaN,NaN,""
2995.7,22.0553,19.9997,NaN,NaN,NaN,NaN,""
3021.08,22.0809,20,NaN,NaN,NaN,NaN,""
3038.28,22.0828,20,NaN,NaN,NaN,NaN,""
3085.71,22.0416,19.9999,NaN,NaN,NaN,NaN,""
3110.56,22.0417,19.9998,NaN,NaN,NaN,NaN,""
3135.41,22.0418,19.9999,NaN,NaN,NaN,NaN,""
3165.35,21.9553,20,NaN,NaN,NaN,NaN,""
3181.23,22.02,20,NaN,NaN,NaN,NaN,""
3224.13,22.0116,20.0001,NaN,NaN,NaN,NaN,""
3238.76,22.0089,19.9998,NaN,NaN,NaN,NaN,""
3253.38,22.0146,19.9994,NaN,NaN,NaN,NaN,""
3299.12,22.0327,19.9999,NaN,NaN,NaN,NaN,""
3332.54,22.0458,20.0001,NaN,NaN,NaN,NaN,""
3343.1,21.9879,20.0001,NaN,NaN,NaN,NaN,""
3361.32,22.0054,20.0001,NaN,NaN,NaN,NaN,""
3372.8,22.0163,19.9997,NaN,NaN,NaN,NaN,""
3387.68,22.0216,19.9998,NaN,NaN,NaN,NaN,""
3402.57,22.0195,20,NaN,NaN,NaN,NaN,""
3423.13,22.0183,19.9999,NaN,NaN,NaN,NaN,""
3454.79,22.036,19.9998,NaN,NaN,NaN,NaN,""
3480.6,22.0504,19.9993,NaN,NaN,NaN,NaN,""
3497.24,22.0409,19.9995,NaN,NaN,NaN,NaN,""
3513.88,22.0194,19.9997,NaN,NaN,NaN,NaN,""
3537.84,21.9999,19.9997,NaN,NaN,NaN,NaN,""
3581.87,22.124,19.9997,NaN,NaN,NaN,NaN,""
3603.73,22.1612,19.9999,NaN,NaN,NaN,NaN,""
3624.9,22.1921,20.0001,NaN,NaN,NaN,NaN,""
3646.76,22.1681,19.9999,NaN,NaN,NaN,NaN,""
3662.53,22.1508,19.9998,NaN,NaN,NaN,NaN,""
3692.12,22.1103,19.9999,NaN,NaN,NaN,NaN,""
3721.81,22.0484,20,NaN,NaN,NaN,NaN,""
3749.65,22.0781,20,NaN,NaN,NaN,NaN,""
3776.35,22.0978,20,NaN,NaN,NaN,NaN,""
3783.73,22.0499,20,NaN,NaN,NaN,NaN,""
3869.45,22.038,19.9998,NaN,NaN,NaN,NaN,""
3939.71,22.0241,20,NaN,NaN,NaN,NaN,""
3986.1,22.0052,20.0001,NaN,NaN,NaN,NaN,""
3990.41,22.0933,20.0001,NaN,NaN,NaN,NaN,""
4025.77,22.0719,20.0002,NaN,NaN,NaN,NaN,""
4048.71,22.0678,20,NaN,NaN,NaN,NaN,""
4082.63,22.0741,19.9996,NaN,NaN,NaN,NaN,""
4121.97,22.114,19.9997,NaN,NaN,NaN,NaN,""
4127.64,22.1321,19.9997,NaN,NaN,NaN,NaN,""
4162.94,22.0551,19.9999,NaN,NaN,NaN,NaN,""
4203.65,22.0856,20,NaN,NaN,NaN,NaN,""
4244.36,22.1161,20.0002,NaN,NaN,NaN,NaN,""
4252.63,22.0633,20.0002,NaN,NaN,NaN,NaN,""
4261.32,22.0665,20.0003,NaN,NaN,NaN,NaN,""
4279.1,22.0729,19.9999,NaN,NaN,NaN,NaN,""
4357.08,22.1009,19.9998,NaN,NaN,NaN,NaN,""
4394.88,22.1719,19.9998,NaN,NaN,NaN,NaN,""
4406.74,21.9535,19.9998,NaN,NaN,NaN,NaN,""
4423.68,22.0569,19.9998,NaN,NaN,NaN,NaN,""
4439.98,22.1524,19.9998,NaN,NaN,NaN,NaN,""
4511.89,22.1391,20,NaN,NaN,NaN,NaN,""
4564.41,22.1138,19.9999,NaN,NaN,NaN,NaN,""
4616.92,22.0884,19.9997,NaN,NaN,NaN,NaN,""
4626.92,22.0873,19.9997,NaN,NaN,NaN,NaN,""
4658.37,22.0839,20.0001,NaN,NaN,NaN,NaN,""
4679.76,22.0815,19.9997,NaN,NaN,NaN,NaN,""
4689.07,22.0805,19.9997,NaN,NaN,NaN,NaN,""
4709.1,22.1684,19.9998,NaN,NaN,NaN,NaN,""
4731.63,22.0687,19.9998,NaN,NaN,NaN,NaN,"Reaction start. Measuring position. Signal correct"
4731.77,22.068,19.9998,0.000238833,3.47717e-05,5.45156e-05,7.93693e-06,""
5186.27,22.1245,20,0.290742,31.8178,0.0663642,7.26269,""
5752.58,22.1203,20.0001,0.0614652,120.015,0.0140299,27.3943,""
6693.16,22.1119,19.9996,0.00748714,141.646,0.001709,32.3318,""
8569.23,22.1442,19.9999,0.00270587,149.14,0.000617638,34.0425,""
10800,22.1592,19.9998,0.00229655,154.417,0.000524208,35.2471,""
13482.2,22.095,19.9995,0.00241243,160.679,0.000550657,36.6764,""
15980.1,22.0632,20,0.00279122,167.125,0.000637119,38.1476,""
18247.7,22.0102,19.9996,0.00347152,174.131,0.000792403,39.7469,""
20677.4,21.9684,19.9999,0.00451499,183.817,0.00103058,41.9578,""
23138.9,21.94,19.9998,0.00577623,196.421,0.00131847,44.8348,""
25462.6,21.963,19.9999,0.00724357,211.501,0.00165341,48.2769,""
27925.8,21.9458,19.9997,0.00901969,231.489,0.00205882,52.8394,""
30291,21.93,19.9999,0.0108875,255.021,0.00248517,58.2108,""
33011.9,21.9296,19.9998,0.0135778,287.887,0.00309925,65.7126,""
35396.3,21.8937,19.9998,0.0160945,323.336,0.0036737,73.8042,""
37663.5,21.9124,19.9999,0.0179916,362.062,0.00410673,82.6438,""
40599.4,21.914,19.9999,0.0200575,417.988,0.0045783,95.4093,""
43033.8,21.8594,19.9995,0.0218145,468.836,0.00497934,107.016,""
45361.7,21.8626,20,0.0258796,523.362,0.00590723,119.462,""
47159.1,21.8574,19.9998,0.0311352,575.338,0.00710688,131.326,""
49545,21.8253,19.9998,0.026069,643.721,0.00595048,146.935,""
51970.2,21.8356,20,0.0228016,702.332,0.00520465,160.313,""
54454.3,21.7774,19.9999,0.0203631,756.209,0.00464804,172.611,""
56755.2,21.7537,19.9999,0.0170535,799.346,0.0038926,182.458,""
59197.2,21.7737,19.9999,0.0137202,836.78,0.00313175,191.002,""
61951,21.7595,19.9998,0.0109114,870.464,0.00249061,198.691,""
64592,21.8449,19.9997,0.0090242,896.644,0.00205985,204.667,""
66892.8,21.8531,20.0001,0.00783675,915.974,0.0017888,209.079,""
69834.7,21.9165,19.9998,0.0067497,937.326,0.00154068,213.952,""
72444.5,21.9665,19.9994,0.00608635,954.033,0.00138926,217.766,""
75078.3,21.9963,20,0.00555629,969.372,0.00126827,221.267,""
77706.9,21.978,20,0.00519021,983.451,0.00118471,224.481,""
80617.3,21.9957,20.0001,0.00493406,998.158,0.00112624,227.838,""
83809.4,21.9847,19.9998,0.00476916,1013.61,0.0010886,231.366,""
86748.4,21.9821,19.9998,0.00469531,1027.51,0.00107174,234.537,""
89369.1,22.0897,20,0.00467933,1039.78,0.0010681,237.339,""
91838.2,22.0598,19.9998,0.00469383,1051.35,0.00107141,239.98,""
94433.2,22.0161,19.9998,0.00473108,1063.58,0.00107991,242.77,""
96944.2,22.0129,20,0.00477768,1075.51,0.00109054,245.495,""
99434.7,22.0008,20.0003,0.00482618,1087.47,0.00110162,248.225,""
102315,22.0099,20.0001,0.00486975,1101.44,0.00111156,251.413,""
104954,21.9282,19.9998,0.00489373,1114.32,0.00111703,254.353,""
107706,21.8632,19.9999,0.00489991,1127.8,0.00111845,257.43,""
110094,21.7955,19.9996,0.00488631,1139.49,0.00111534,260.098,""
112527,21.7522,19.9997,0.00486117,1151.35,0.0011096,262.806,""
114944,21.7289,20.0001,0.00482104,1163.05,0.00110044,265.476,""
117204,21.7272,19.9999,0.00476821,1173.89,0.00108838,267.949,""
119973,21.721,19.9995,0.00469097,1186.99,0.00107075,270.94,""
122559,21.7159,20.0001,0.00461095,1199.01,0.00105249,273.685,""
125251,21.6605,19.9999,0.00451085,1211.29,0.00102964,276.488,""
127838,21.689,19.9997,0.00441539,1222.84,0.00100785,279.124,""
130226,21.6637,19.9995,0.00431693,1233.27,0.000985376,281.503,""
132798,21.6567,19.9997,0.00420648,1244.23,0.000960165,284.005,""
135560,21.6309,19.9998,0.0040874,1255.68,0.000932983,286.62,""
137964,21.611,19.9998,0.00398127,1265.38,0.000908759,288.834,""
140664,21.583,19.9997,0.00386186,1275.97,0.000881502,291.25,""
143083,21.554,19.9997,0.00375785,1285.18,0.00085776,293.354,""
145709,21.5698,19.9997,0.00364316,1294.9,0.000831583,295.572,""
148247,21.5342,19.9999,0.00353494,1304.01,0.000806879,297.651,""
150420,21.5107,19.9998,0.00344668,1311.59,0.000786733,299.382,""
152673,21.5494,20,0.00335491,1319.26,0.000765785,301.131,""
155020,21.6367,19.9997,0.00326129,1327.02,0.000744418,302.904,""
157508,21.7405,20.0003,0.00316849,1335.02,0.000723235,304.729,""
159454,21.7457,19.9999,0.0030971,1341.11,0.00070694,306.12,""
161917,21.82,20,0.00300971,1348.63,0.000686991,307.837,""
164526,21.848,19.9998,0.002919,1356.36,0.000666285,309.601,""
166957,21.9517,19.9999,0.00283982,1363.36,0.000648212,311.199,""
169151,21.9532,20,0.00276924,1369.51,0.000632103,312.603,""
171576,22.0288,20,0.00269466,1376.14,0.000615079,314.115,""
173681,22.1063,20,0.00263218,1381.74,0.000600816,315.395,""
175937,22.2537,19.9997,0.00256795,1387.61,0.000586157,316.734,""
177971,22.1508,20.0001,0.00251282,1392.78,0.000573573,317.913,""
180232,22.2013,20,0.00245499,1398.39,0.000560372,319.195,""
182721,22.1355,19.9997,0.00239145,1404.42,0.000545868,320.571,""
185297,22.07,20.0001,0.0023294,1410.5,0.000531705,321.959,""
187748,21.9582,19.9998,0.00227166,1416.14,0.000518525,323.246,""
190533,21.8876,20,0.0022125,1422.39,0.000505023,324.672,""
193100,21.8676,20.0001,0.00215939,1428,0.000492898,325.952,""
195588,21.8379,20,0.00210901,1433.31,0.000481399,327.164,""
197991,21.7869,19.9996,0.00206269,1438.32,0.000470827,328.308,""
200472,21.7756,19.9999,0.00201856,1443.38,0.000460753,329.464,""
203057,21.7436,19.9998,0.00197235,1448.54,0.000450205,330.641,""
205716,21.7208,20,0.00192885,1453.72,0.000440275,331.825,""
208072,21.6716,19.9999,0.00189001,1458.22,0.00043141,332.852,""
210458,21.6465,19.9995,0.00185281,1462.69,0.000422919,333.871,""
212820,21.6529,20.0004,0.00181936,1467.03,0.000415283,334.862,""
215616,21.6246,19.9996,0.00177742,1472.06,0.000405712,336.009,""
218064,21.6295,19.9999,0.00174342,1476.37,0.000397951,336.994,""
220449,21.5873,19.9999,0.00171471,1480.49,0.000391398,337.934,""
223131,21.5932,19.9998,0.00167835,1485.04,0.000383097,338.973,""
226448,21.5423,20.0002,0.00164061,1490.54,0.000374484,340.229,""
229268,21.5556,19.9999,0.00160482,1495.12,0.000366313,341.274,""
232197,21.5711,19.9999,0.0015743,1499.78,0.000359348,342.337,""
235098,21.5127,19.9997,0.00154208,1504.3,0.000351994,343.368,""
238115,21.4733,20.0003,0.00151074,1508.9,0.000344839,344.419,""
240998,21.4907,20,0.00148202,1513.22,0.000338284,345.404,""
244036,21.4959,19.9998,0.00145233,1517.67,0.000331507,346.422,""
247201,21.4556,19.9999,0.0014237,1522.23,0.000324971,347.461,""
250527,21.5736,20.0001,0.00139437,1526.91,0.000318277,348.531,""
253329,21.6275,20.0002,0.00137305,1530.79,0.00031341,349.416,""
255811,21.7598,19.9999,0.0013507,1534.17,0.000308309,350.187,""
258642,21.6932,20,0.00132858,1537.96,0.00030326,351.053,""
261427,21.6926,19.9998,0.00130476,1541.63,0.000297822,351.89,""
263982,21.6025,19.9998,0.0012875,1544.94,0.000293882,352.646,""
266719,21.5539,19.9999,0.00126705,1548.44,0.000289214,353.444,""
269617,21.4795,19.9996,0.00124535,1552.07,0.000284261,354.274,""
272879,21.4195,19.9999,0.00122217,1556.1,0.00027897,355.192,""
275682,21.4229,19.9999,0.00120173,1559.5,0.000274305,355.968,""
278263,21.4,19.9999,0.00118696,1562.58,0.000270934,356.672,""
281650,21.4174,19.9999,0.00116485,1566.56,0.000265887,357.581,""
285086,21.4095,19.9995,0.00114472,1570.53,0.000261291,358.486,""
288175,21.4054,20.0001,0.00112495,1574.03,0.000256779,359.286,""
291358,21.4006,19.9998,0.00110809,1577.59,0.00025293,360.097,""
294382,21.3982,19.9998,0.0010884,1580.91,0.000248436,360.855,""
297476,21.3988,19.9997,0.00107314,1584.25,0.000244952,361.619,""
300620,21.3736,20.0001,0.00105493,1587.6,0.000240797,362.382,""
303573,21.3408,20,0.00103931,1590.69,0.00023723,363.088,""
306556,21.3895,19.9999,0.00102271,1593.76,0.000233443,363.79,""
309642,21.3587,19.9999,0.00100807,1596.9,0.0002301,364.505,""
313040,21.3308,20,0.000989837,1600.29,0.000225939,365.279,""
315753,21.3323,19.9997,0.000975942,1602.96,0.000222767,365.888,""
318240,21.3086,20.0001,0.000964892,1605.37,0.000220245,366.439,""
320704,21.2897,19.9998,0.000953267,1607.73,0.000217591,366.979,""
323228,21.2745,19.9997,0.000942099,1610.13,0.000215042,367.525,""
325841,21.2319,20,0.000930274,1612.57,0.000212343,368.083,""
328452,21.2645,19.9997,0.000918923,1614.98,0.000209752,368.633,""
331176,21.2832,19.9999,0.000905397,1617.47,0.000206664,369.2,""
333783,21.286,20.0003,0.000894898,1619.81,0.000204268,369.736,""
336671,21.3136,19.9995,0.000882073,1622.38,0.000201341,370.322,""
339117,21.3016,19.9995,0.000871623,1624.53,0.000198955,370.812,""
342005,21.2984,19.9996,0.000859988,1627.03,0.000196299,371.383,""
344574,21.3123,19.9997,0.000849952,1629.22,0.000194009,371.884,""
347098,21.3001,20.0002,0.000839696,1631.36,0.000191668,372.371,""
349906,21.3055,20,0.000829807,1633.7,0.00018941,372.906,""
353053,21.276,19.9996,0.000817381,1636.29,0.000186574,373.497,""
355545,21.2914,20,0.000810102,1638.32,0.000184913,373.959,""
358204,21.332,19.9999,0.000799462,1640.45,0.000182484,374.447,""
360844,21.3195,19.9999,0.000789423,1642.55,0.000180193,374.926,""
363973,21.2694,19.9998,0.000780167,1645.01,0.00017808,375.487,""
366798,21.3097,19.9999,0.000771603,1647.2,0.000176125,375.987,""
369467,21.3136,19.9999,0.000762785,1649.24,0.000174112,376.454,""
372253,21.2977,19.9997,0.000752849,1651.36,0.000171844,376.936,""
375122,21.3105,20,0.000746305,1653.51,0.00017035,377.427,""
377605,21.288,20,0.000738212,1655.35,0.000168503,377.847,""
380282,21.2589,20,0.000731486,1657.32,0.000166968,378.296,""
383040,21.2793,20.0003,0.000722378,1659.32,0.000164889,378.754,""
385832,21.2667,19.9996,0.000716533,1661.33,0.000163555,379.213,""
388621,21.2664,19.9998,0.000710942,1663.32,0.000162279,379.667,""
391537,21.2654,20.0002,0.000703679,1665.38,0.000160621,380.138,""
394512,21.2665,19.9994,0.000697893,1667.47,0.0001593,380.613,""
397170,21.2349,19.9996,0.000690238,1669.31,0.000157553,381.034,""
400147,21.2502,19.9999,0.000686013,1671.36,0.000156588,381.503,""
402886,21.2239,20.0001,0.000678965,1673.23,0.000154979,381.93,""
405633,21.2493,20,0.000675655,1675.1,0.000154224,382.355,""
408410,21.2494,19.9992,0.000671165,1676.96,0.000153199,382.781,""
410979,21.2969,20.0002,0.000666032,1678.68,0.000152027,383.173,""
413097,21.5137,20.0002,0.000664357,1680.09,0.000151645,383.495,""
413097,21.5137,20.0002,NaN,NaN,NaN,NaN,"Ampoule removed"
413100,21.5133,20.0002,NaN,NaN,NaN,NaN,""